time /s	I /nA	E /V
0.100	0.119	0.099
0.200	5.234	0.099
0.300	-2.746	0.099
0.400	0.980	0.099
0.500	4.662	0.099
0.600	9.351	0.099
0.700	-2.138	0.099
0.800	-2.370	0.099
0.900	5.211	0.099
1.000	13.475	0.099
1.100	2.717	0.099
1.200	5.807	0.099
1.300	-3.273	0.099
1.400	3.358	0.099
1.500	7.526	0.099
1.600	-8.695	0.099
1.700	10.305	0.099
1.800	-5.105	0.099
1.900	2.093	0.099
2.000	1.749	0.099
2.100	-1.547	0.099
2.200	12.432	0.099
2.300	2.664	0.099
2.400	17.730	0.099
2.500	12.259	0.099
2.600	-5.573	0.099
2.700	0.694	0.099
2.800	-0.985	0.099
2.900	5.306	0.099
3.000	-1.395	0.099
3.100	7.860	0.099
3.200	-2.570	0.099
3.300	2.817	0.099
3.400	5.786	0.099
3.500	2.749	0.099
3.600	9.267	0.099
3.700	1.629	0.099
3.800	8.578	0.099
3.900	-2.566	0.099
4.000	0.175	0.099
4.100	-10.207	0.099
4.200	13.271	0.099
4.300	9.196	0.099
4.400	3.224	0.099
4.500	2.163	0.099
4.600	-3.356	0.099
4.700	5.185	0.099
4.800	2.521	0.099
4.900	7.094	0.099
5.000	-0.706	0.099
5.100	5.466	0.099
5.200	9.944	0.099
5.300	1.604	0.099
5.400	-2.721	0.099
5.500	16.727	0.099
5.600	-0.511	0.099
5.700	0.879	0.099
5.800	4.127	0.099
5.900	14.424	0.099
6.000	9.671	0.099
6.100	-8.166	0.099
6.200	6.184	0.099
6.300	1.613	0.099
6.400	3.568	0.099
6.500	-1.471	0.099
6.600	-6.448	0.099
6.700	23.728	0.099
6.800	-9.065	0.099
6.900	-7.412	0.099
7.000	4.799	0.099
7.100	-3.192	0.099
7.200	10.584	0.099
7.300	2.103	0.099
7.400	0.830	0.099
7.500	-6.411	0.099
7.600	-3.301	0.099
7.700	16.358	0.099
7.800	6.035	0.099
7.900	4.028	0.099
8.000	9.074	0.099
8.100	-7.983	0.099
8.200	-0.189	0.099
8.300	10.006	0.099
8.400	14.328	0.099
8.500	3.902	0.099
8.600	-5.307	0.099
8.700	-1.038	0.099
8.800	6.973	0.099
8.900	5.490	0.099
9.000	-5.902	0.099
9.100	7.541	0.099
9.200	-3.006	0.099
9.300	2.136	0.099
9.400	3.657	0.099
9.500	1.648	0.099
9.600	5.650	0.099
9.700	-0.346	0.099
9.800	-5.900	0.099
9.900	6.900	0.099
10.000	3.319	0.099
10.100	14.556	0.099
10.200	1.015	0.099
10.300	0.368	0.099
10.400	2.407	0.099
10.500	8.764	0.099
10.600	16.321	0.099
10.700	-8.439	0.099
10.800	0.554	0.099
10.900	-7.066	0.099
11.000	6.901	0.099
11.100	-3.119	0.099
11.200	13.605	0.099
11.300	5.909	0.099
11.400	11.047	0.099
11.500	-0.380	0.099
11.600	9.348	0.099
11.700	-5.725	0.099
11.800	7.978	0.099
11.900	3.342	0.099
12.000	1.075	0.099
12.100	4.198	0.099
12.200	-1.674	0.099
12.300	8.476	0.099
12.400	12.691	0.099
12.500	4.670	0.099
12.600	-2.683	0.099
12.700	6.695	0.099
12.800	8.925	0.099
12.900	-3.929	0.099
13.000	-3.994	0.099
13.100	2.657	0.099
13.200	6.073	0.099
13.300	-5.365	0.099
13.400	-9.413	0.099
13.500	15.260	0.099
13.600	3.712	0.099
13.700	10.437	0.099
13.800	5.347	0.099
13.900	18.105	0.099
14.000	-0.115	0.099
14.100	-1.789	0.099
14.200	1.185	0.099
14.300	10.601	0.099
14.400	8.795	0.099
14.500	-22.137	0.099
14.600	-2.220	0.099
14.700	4.757	0.099
14.800	-7.259	0.099
14.900	7.448	0.099
15.000	-5.201	0.099
15.100	16.880	0.099
15.200	7.003	0.099
15.300	9.171	0.099
15.400	-4.580	0.099
15.500	12.976	0.099
15.600	12.927	0.099
15.700	5.980	0.099
15.800	6.388	0.099
15.900	5.730	0.099
16.000	5.553	0.099
16.100	15.245	0.099
16.200	3.903	0.099
16.300	6.500	0.099
16.400	0.703	0.099
16.500	4.132	0.099
16.600	13.908	0.099
16.700	-2.584	0.099
16.800	5.703	0.099
16.900	-13.132	0.099
17.000	9.993	0.099
17.100	7.225	0.099
17.200	11.061	0.099
17.300	0.667	0.099
17.400	1.437	0.099
17.500	0.971	0.099
17.600	-1.768	0.099
17.700	0.803	0.099
17.800	1.697	0.099
17.900	12.007	0.099
18.000	6.410	0.099
18.100	0.441	0.099
18.200	10.356	0.099
18.300	3.237	0.099
18.400	0.381	0.099
18.500	1.971	0.099
18.600	12.159	0.099
18.700	-7.999	0.099
18.800	-1.223	0.099
18.900	12.609	0.099
19.000	7.540	0.099
19.100	9.853	0.099
19.200	-0.274	0.099
19.300	5.872	0.099
19.400	6.691	0.099
19.500	8.497	0.099
19.600	4.180	0.099
19.700	-3.057	0.099
19.800	-3.876	0.099
19.900	1.654	0.099
20.000	11.314	0.099
20.100	-2.037	0.099
20.200	8.439	0.099
20.300	0.474	0.099
20.400	-0.784	0.099
20.500	10.577	0.099
20.600	8.624	0.099
20.700	4.014	0.099
20.800	2.271	0.099
20.900	5.737	0.099
21.000	-2.849	0.099
21.100	1.413	0.099
21.200	2.778	0.099
21.300	-1.663	0.099
21.400	-2.001	0.099
21.500	0.940	0.099
21.600	2.452	0.099
21.700	16.770	0.099
21.800	-7.525	0.099
21.900	9.728	0.099
22.000	5.822	0.099
22.100	3.880	0.099
22.200	16.358	0.099
22.300	1.765	0.099
22.400	8.728	0.099
22.500	9.311	0.099
22.600	0.738	0.099
22.700	-9.272	0.099
22.800	-2.566	0.099
22.900	3.191	0.099
23.000	9.331	0.099
23.100	5.218	0.099
23.200	0.339	0.099
23.300	-0.676	0.099
23.400	6.941	0.099
23.500	1.300	0.099
23.600	-5.538	0.099
23.700	7.782	0.099
23.800	6.506	0.099
23.900	-2.608	0.099
24.000	12.575	0.099
24.100	1.963	0.099
24.200	10.310	0.099
24.300	-5.176	0.099
24.400	-5.306	0.099
24.500	14.251	0.099
24.600	12.187	0.099
24.700	-4.603	0.099
24.800	10.811	0.099
24.900	-2.258	0.099
25.000	7.887	0.099
25.100	9.733	0.099
25.200	2.230	0.099
25.300	2.427	0.099
25.400	9.444	0.099
25.500	13.631	0.099
25.600	-1.307	0.099
25.700	5.052	0.099
25.800	1.080	0.099
25.900	-7.328	0.099
26.000	11.210	0.099
26.100	7.308	0.099
26.200	-5.023	0.099
26.300	-1.104	0.099
26.400	15.308	0.099
26.500	7.537	0.099
26.600	2.259	0.099
26.700	9.682	0.099
26.800	0.828	0.099
26.900	-11.889	0.099
27.000	7.353	0.099
27.100	11.094	0.099
27.200	-1.202	0.099
27.300	1.229	0.099
27.400	6.122	0.099
27.500	4.550	0.099
27.600	4.549	0.099
27.700	-4.712	0.099
27.800	6.758	0.099
27.900	-13.671	0.099
28.000	10.126	0.099
28.100	6.121	0.099
28.200	7.751	0.099
28.300	5.061	0.099
28.400	-9.192	0.099
28.500	-8.972	0.099
28.600	23.305	0.099
28.700	-3.714	0.099
28.800	4.228	0.099
28.900	7.677	0.099
29.000	1.803	0.099
29.100	6.245	0.099
29.200	7.130	0.099
29.300	-1.931	0.099
29.400	5.547	0.099
29.500	9.582	0.099
29.600	5.958	0.099
29.700	-6.035	0.099
29.800	0.550	0.099
29.900	5.952	0.099
30.000	1.314	0.099
30.100	0.054	0.099
30.200	12.612	0.099
30.300	-1.251	0.099
30.400	11.069	0.099
30.500	-2.753	0.099
30.600	2.163	0.099
30.700	2.326	0.099
30.800	4.859	0.099
30.900	21.250	0.099
31.000	10.029	0.099
31.100	4.200	0.099
31.200	-6.206	0.099
31.300	7.365	0.099
31.400	7.351	0.099
31.500	-11.716	0.099
31.600	6.055	0.099
31.700	-4.391	0.099
31.800	17.213	0.099
31.900	4.307	0.099
32.000	-4.651	0.099
32.100	9.014	0.099
32.200	8.839	0.099
32.300	3.934	0.099
32.400	-1.461	0.099
32.500	14.338	0.099
32.600	-4.673	0.099
32.700	14.888	0.099
32.800	10.421	0.099
32.900	-1.670	0.099
33.000	5.131	0.099
33.100	6.783	0.099
33.200	-4.999	0.099
33.300	12.935	0.099
33.400	9.540	0.099
33.500	1.084	0.099
33.600	20.303	0.099
33.700	10.369	0.099
33.800	-2.945	0.099
33.900	-3.096	0.099
34.000	5.097	0.099
34.100	10.079	0.099
34.200	10.298	0.099
34.300	5.127	0.099
34.400	12.346	0.099
34.500	-2.464	0.099
34.600	-1.641	0.099
34.700	13.373	0.099
34.800	5.536	0.099
34.900	3.188	0.099
35.000	9.702	0.099
35.100	-3.521	0.099
35.200	1.695	0.099
35.300	7.591	0.099
35.400	1.435	0.099
35.500	12.634	0.099
35.600	-2.546	0.099
35.700	-1.550	0.099
35.800	-5.924	0.099
35.900	9.971	0.099
36.000	-0.168	0.099
36.100	5.697	0.099
36.200	6.419	0.099
36.300	1.038	0.099
36.400	3.500	0.099
36.500	2.180	0.099
36.600	11.269	0.099
36.700	-1.850	0.099
36.800	-2.836	0.099
36.900	16.065	0.099
37.000	-1.835	0.099
37.100	8.473	0.099
37.200	7.052	0.099
37.300	3.716	0.099
37.400	2.718	0.100
37.500	7.487	0.099
37.600	-3.640	0.099
37.700	12.856	0.099
37.800	13.098	0.099
37.900	4.442	0.099
38.000	1.793	0.099
38.100	9.446	0.100
38.200	2.562	0.100
38.300	14.947	0.100
38.400	13.979	0.099
38.500	-8.252	0.100
38.600	4.472	0.100
38.700	0.985	0.100
38.800	5.645	0.100
38.900	-18.630	0.100
39.000	27.607	0.100
39.100	11.623	0.100
39.200	8.603	0.100
39.300	1.432	0.100
39.400	1.887	0.100
39.500	-2.851	0.100
39.600	12.949	0.100
39.700	-3.054	0.100
39.800	2.678	0.100
39.900	15.887	0.100
40.000	4.928	0.100
40.100	10.532	0.100
40.200	4.203	0.100
40.300	7.642	0.100
40.400	20.219	0.100
40.500	7.057	0.100
40.600	6.294	0.100
40.700	10.323	0.100
40.800	-2.213	0.100
40.900	-11.739	0.100
41.000	10.936	0.100
41.100	4.658	0.100
41.200	9.699	0.100
41.300	-8.079	0.100
41.400	5.708	0.100
41.500	18.508	0.100
41.600	4.616	0.100
41.700	5.806	0.100
41.800	-0.181	0.100
41.900	4.300	0.100
42.000	4.940	0.100
42.100	18.405	0.100
42.200	-0.953	0.100
42.300	-7.218	0.100
42.400	6.130	0.100
42.500	11.942	0.100
42.600	10.902	0.100
42.700	10.846	0.100
42.800	2.445	0.100
42.900	-3.838	0.100
43.000	-2.182	0.100
43.100	2.563	0.100
43.200	7.900	0.100
43.300	11.400	0.100
43.400	-12.774	0.100
43.500	11.414	0.100
43.600	1.725	0.100
43.700	7.547	0.100
43.800	3.868	0.100
43.900	14.628	0.100
44.000	-3.813	0.100
44.100	8.569	0.100
44.200	-5.015	0.100
44.300	18.841	0.100
44.400	8.669	0.100
44.500	7.568	0.100
44.600	4.328	0.100
44.700	14.978	0.100
44.800	5.796	0.100
44.900	-3.750	0.100
45.000	11.267	0.100
45.100	10.226	0.100
45.200	-4.409	0.100
45.300	20.219	0.100
45.400	5.776	0.100
45.500	3.147	0.100
45.600	9.558	0.100
45.700	7.813	0.100
45.800	4.615	0.100
45.900	9.483	0.100
46.000	19.912	0.100
46.100	4.207	0.100
46.200	8.886	0.100
46.300	13.604	0.100
46.400	7.761	0.100
46.500	11.804	0.100
46.600	1.936	0.100
46.700	10.480	0.100
46.800	-4.962	0.100
46.900	11.085	0.100
47.000	-0.352	0.100
47.100	18.537	0.100
47.200	2.691	0.100
47.300	8.580	0.100
47.400	2.257	0.100
47.500	4.084	0.100
47.600	10.076	0.100
47.700	4.561	0.100
47.800	11.743	0.100
47.900	2.577	0.100
48.000	-7.702	0.100
48.100	6.764	0.100
48.200	9.299	0.100
48.300	2.772	0.100
48.400	-8.795	0.100
48.500	11.546	0.100
48.600	9.766	0.100
48.700	9.648	0.100
48.800	8.495	0.100
48.900	-0.196	0.100
49.000	4.327	0.100
49.100	7.696	0.100
49.200	10.008	0.100
49.300	13.004	0.100
49.400	10.167	0.100
49.500	2.524	0.100
49.600	4.464	0.100
49.700	-8.698	0.100
49.800	9.948	0.100
49.900	0.895	0.100
50.000	-5.186	0.100
50.100	10.529	0.100
50.200	15.344	0.100
50.300	1.327	0.100
50.400	4.893	0.100
50.500	0.826	0.100
50.600	11.373	0.100
50.700	8.879	0.100
50.800	3.566	0.100
50.900	-0.967	0.100
51.000	15.377	0.100
51.100	-3.888	0.100
51.200	7.842	0.100
51.300	0.064	0.100
51.400	0.317	0.100
51.500	6.809	0.100
51.600	2.487	0.100
51.700	9.814	0.100
51.800	-9.360	0.100
51.900	14.793	0.100
52.000	16.084	0.100
52.100	0.054	0.100
52.200	4.566	0.100
52.300	-0.760	0.100
52.400	-10.352	0.100
52.500	17.560	0.100
52.600	0.820	0.100
52.700	15.067	0.100
52.800	6.496	0.100
52.900	-0.072	0.100
53.000	-2.336	0.100
53.100	14.557	0.100
53.200	-2.860	0.100
53.300	7.161	0.100
53.400	2.481	0.100
53.500	8.474	0.100
53.600	12.337	0.100
53.700	-0.558	0.100
53.800	5.966	0.100
53.900	5.446	0.100
54.000	-2.139	0.100
54.100	9.105	0.100
54.200	1.569	0.100
54.300	-8.221	0.100
54.400	3.731	0.100
54.500	9.791	0.100
54.600	7.055	0.100
54.700	2.096	0.100
54.800	-10.650	0.100
54.900	17.779	0.100
55.000	14.082	0.100
55.100	3.090	0.100
55.200	0.536	0.100
55.300	7.212	0.100
55.400	8.556	0.100
55.500	6.739	0.100
55.600	7.541	0.100
55.700	-6.349	0.100
55.800	3.189	0.100
55.900	-0.915	0.100
56.000	15.146	0.100
56.100	11.947	0.100
56.200	1.102	0.100
56.300	5.982	0.100
56.400	0.361	0.100
56.500	12.889	0.100
56.600	9.514	0.100
56.700	-3.209	0.100
56.800	4.534	0.100
56.900	5.048	0.100
57.000	-1.212	0.100
57.100	-4.329	0.100
57.200	20.868	0.100
57.300	3.047	0.100
57.400	13.302	0.100
57.500	-14.581	0.100
57.600	4.464	0.100
57.700	4.065	0.100
57.800	-5.735	0.100
57.900	8.549	0.100
58.000	-1.089	0.100
58.100	0.166	0.100
58.200	-5.949	0.100
58.300	9.682	0.100
58.400	2.415	0.100
58.500	4.332	0.100
58.600	13.787	0.100
58.700	2.619	0.100
58.800	-1.379	0.100
58.900	-1.726	0.100
59.000	7.516	0.100
59.100	25.791	0.100
59.200	1.005	0.100
59.300	0.913	0.100
59.400	9.707	0.100
59.500	1.603	0.100
59.600	4.703	0.100
59.700	3.420	0.100
59.800	4.523	0.099
59.900	-0.495	0.099
60.000	10.879	0.099
60.100	8.099	0.099
60.200	1.454	0.099
60.300	7.062	0.099
60.400	6.220	0.099
60.500	5.657	0.099
60.600	12.610	0.099
60.700	0.084	0.099
60.800	13.334	0.099
60.900	4.368	0.099
61.000	-1.347	0.099
61.100	9.017	0.099
61.200	13.230	0.099
61.300	4.265	0.099
61.400	-6.053	0.099
61.500	0.198	0.099
61.600	6.075	0.099
61.700	-13.826	0.099
61.800	10.048	0.099
61.900	9.853	0.099
62.000	0.054	0.099
62.100	-7.275	0.099
62.200	12.342	0.099
62.300	8.788	0.099
62.400	3.882	0.099
62.500	6.349	0.099
62.600	9.663	0.099
62.700	0.505	0.099
62.800	0.660	0.099
62.900	-4.788	0.099
63.000	-1.698	0.099
63.100	10.244	0.099
63.200	1.683	0.099
63.300	5.976	0.099
63.400	1.819	0.099
63.500	-9.256	0.099
63.600	8.407	0.099
63.700	6.496	0.099
63.800	-6.129	0.099
63.900	16.178	0.100
64.000	13.342	0.099
64.100	4.172	0.099
64.200	-4.497	0.099
64.300	7.366	0.099
64.400	-6.725	0.099
64.500	5.809	0.099
64.600	11.780	0.099
64.700	8.564	0.099
64.800	6.806	0.099
64.900	-7.999	0.099
65.000	-3.886	0.099
65.100	7.947	0.099
65.200	14.678	0.099
65.300	3.377	0.099
65.400	9.463	0.099
65.500	-9.103	0.099
65.600	8.155	0.099
65.700	6.618	0.099
65.800	-0.875	0.099
65.900	4.378	0.099
66.000	-0.572	0.099
66.100	9.425	0.099
66.200	1.016	0.099
66.300	3.033	0.100
66.400	-4.042	0.100
66.500	8.776	0.099
66.600	13.472	0.099
66.700	-0.615	0.099
66.800	-7.431	0.099
66.900	-1.768	0.099
67.000	11.375	0.099
67.100	3.461	0.099
67.200	-1.572	0.099
67.300	5.242	0.099
67.400	14.464	0.099
67.500	14.511	0.099
67.600	4.172	0.099
67.700	-5.518	0.099
67.800	-0.789	0.099
67.900	3.534	0.099
68.000	2.241	0.100
68.100	9.134	0.099
68.200	4.108	0.099
68.300	15.248	0.099
68.400	10.762	0.099
68.500	16.423	0.099
68.600	6.486	0.099
68.700	9.024	0.099
68.800	0.571	0.099
68.900	1.453	0.099
69.000	-5.958	0.100
69.100	1.989	0.099
69.200	3.647	0.099
69.300	-1.213	0.100
69.400	4.415	0.099
69.500	4.172	0.099
69.600	13.788	0.099
69.700	3.724	0.100
69.800	14.043	0.099
69.900	-6.559	0.099
70.000	-0.781	0.099
70.100	5.404	0.099
70.200	-0.104	0.099
70.300	17.220	0.099
70.400	6.706	0.099
70.500	0.818	0.099
70.600	1.955	0.099
70.700	3.582	0.099
70.800	11.237	0.099
70.900	5.771	0.099
71.000	5.022	0.099
71.100	4.427	0.099
71.200	5.499	0.099
71.300	6.224	0.099
71.400	6.320	0.099
71.500	16.711	0.099
71.600	4.634	0.099
71.700	4.546	0.099
71.800	-1.023	0.099
71.900	5.756	0.099
72.000	-6.802	0.099
72.100	14.114	0.099
72.200	0.415	0.099
72.300	5.769	0.099
72.400	1.376	0.099
72.500	13.054	0.100
72.600	0.656	0.099
72.700	-5.677	0.099
72.800	-5.800	0.099
72.900	7.883	0.099
73.000	1.646	0.099
73.100	-7.864	0.099
73.200	13.030	0.099
73.300	-3.393	0.099
73.400	2.573	0.099
73.500	-17.062	0.099
73.600	7.126	0.099
73.700	17.295	0.099
73.800	8.912	0.099
73.900	12.718	0.099
74.000	-3.357	0.099
74.100	-1.601	0.099
74.200	7.185	0.099
74.300	-1.274	0.099
74.400	-4.442	0.099
74.500	9.345	0.099
74.600	-4.442	0.099
74.700	15.032	0.099
74.800	3.935	0.099
74.900	4.542	0.099
75.000	-2.257	0.099
75.100	7.563	0.099
75.200	9.169	0.099
75.300	11.166	0.099
75.400	-1.923	0.099
75.500	4.950	0.099
75.600	4.049	0.099
75.700	9.157	0.099
75.800	10.832	0.099
75.900	-12.544	0.099
76.000	2.191	0.099
76.100	7.791	0.099
76.200	13.714	0.099
76.300	7.893	0.099
76.400	7.180	0.099
76.500	1.613	0.100
76.600	11.400	0.100
76.700	16.549	0.100
76.800	9.199	0.100
76.900	-17.750	0.100
77.000	-6.326	0.099
77.100	2.319	0.099
77.200	15.180	0.099
77.300	6.156	0.099
77.400	1.492	0.099
77.500	-2.028	0.099
77.600	9.006	0.100
77.700	-3.597	0.099
77.800	7.701	0.099
77.900	3.749	0.099
78.000	-3.760	0.100
78.100	2.458	0.100
78.200	13.838	0.099
78.300	6.799	0.099
78.400	-1.504	0.099
78.500	9.189	0.099
78.600	8.544	0.099
78.700	-1.568	0.099
78.800	10.146	0.099
78.900	-1.943	0.099
79.000	7.897	0.099
79.100	7.004	0.099
79.200	5.898	0.099
79.300	3.976	0.099
79.400	2.671	0.100
79.500	19.173	0.099
79.600	-0.880	0.099
79.700	10.681	0.099
79.800	7.235	0.099
79.900	7.527	0.099
80.000	7.431	0.099
80.100	9.051	0.099
80.200	1.600	0.099
80.300	-16.853	0.099
80.400	12.904	0.099
80.500	-3.919	0.099
80.600	11.141	0.099
80.700	1.793	0.099
80.800	5.215	0.099
80.900	11.931	0.099
81.000	2.853	0.099
81.100	3.770	0.100
81.200	0.545	0.099
81.300	9.456	0.100
81.400	7.650	0.099
81.500	-21.419	0.099
81.600	-5.365	0.099
81.700	2.216	0.099
81.800	7.327	0.099
81.900	8.510	0.099
82.000	8.604	0.099
82.100	7.739	0.099
82.200	4.372	0.099
82.300	-7.323	0.099
82.400	1.506	0.099
82.500	-5.130	0.099
82.600	-21.931	0.099
82.700	24.377	0.099
82.800	17.047	0.099
82.900	2.482	0.099
83.000	-0.423	0.099
83.100	-1.541	0.099
83.200	18.575	0.100
83.300	4.619	0.099
83.400	4.649	0.099
83.500	5.364	0.099
83.600	6.813	0.099
83.700	4.409	0.099
83.800	-2.793	0.099
83.900	-1.912	0.099
84.000	2.081	0.099
84.100	7.382	0.099
84.200	7.104	0.099
84.300	0.127	0.099
84.400	-5.237	0.100
84.500	-2.326	0.099
84.600	11.850	0.099
84.700	11.480	0.099
84.800	7.357	0.099
84.900	6.986	0.099
85.000	8.607	0.099
85.100	1.338	0.099
85.200	-17.446	0.099
85.300	-3.042	0.099
85.400	8.173	0.099
85.500	14.030	0.100
85.600	2.300	0.099
85.700	-6.809	0.099
85.800	4.426	0.099
85.900	5.370	0.099
86.000	0.382	0.099
86.100	11.913	0.099
86.200	1.021	0.099
86.300	-6.209	0.099
86.400	12.687	0.099
86.500	7.945	0.099
86.600	1.622	0.099
86.700	-3.180	0.099
86.800	8.809	0.099
86.900	11.153	0.099
87.000	2.204	0.099
87.100	-1.126	0.099
87.200	10.169	0.099
87.300	-2.595	0.099
87.400	5.419	0.099
87.500	-0.257	0.099
87.600	-1.845	0.099
87.700	15.136	0.099
87.800	5.982	0.099
87.900	21.741	0.099
88.000	3.733	0.099
88.100	7.950	0.099
88.200	9.428	0.099
88.300	8.528	0.099
88.400	3.475	0.099
88.500	3.858	0.099
88.600	5.559	0.099
88.700	2.235	0.099
88.800	-4.869	0.099
88.900	8.631	0.099
89.000	4.944	0.099
89.100	2.161	0.099
89.200	-3.985	0.099
89.300	12.479	0.099
89.400	4.732	0.099
89.500	9.623	0.099
89.600	11.580	0.099
89.700	8.776	0.099
89.800	9.769	0.099
89.900	-1.284	0.099
90.000	3.385	0.099
90.100	3.877	0.099
90.200	8.383	0.099
90.300	-3.408	0.099
90.400	-3.964	0.099
90.500	17.335	0.099
90.600	15.344	0.099
90.700	-4.278	0.099
90.800	9.607	0.099
90.900	-5.201	0.099
91.000	1.749	0.099
91.100	19.809	0.099
91.200	10.182	0.099
91.300	-6.436	0.099
91.400	8.861	0.099
91.500	9.093	0.099
91.600	5.339	0.099
91.700	5.887	0.099
91.800	4.278	0.099
91.900	-0.783	0.099
92.000	-6.333	0.099
92.100	5.587	0.099
92.200	7.834	0.099
92.300	-12.895	0.099
92.400	5.307	0.099
92.500	15.700	0.099
92.600	-2.351	0.100
92.700	5.723	0.099
92.800	-1.985	0.099
92.900	0.110	0.099
93.000	-1.389	0.099
93.100	4.188	0.100
93.200	12.787	0.099
93.300	-9.631	0.100
93.400	11.942	0.099
93.500	7.243	0.100
93.600	-7.910	0.099
93.700	1.509	0.099
93.800	-1.340	0.099
93.900	5.643	0.099
94.000	4.269	0.099
94.100	12.997	0.100
94.200	-4.303	0.099
94.300	-1.620	0.099
94.400	-6.332	0.099
94.500	9.242	0.100
94.600	-8.209	0.099
94.700	7.446	0.099
94.800	6.646	0.099
94.900	4.865	0.099
95.000	8.138	0.099
95.100	-1.778	0.099
95.200	21.853	0.100
95.300	7.002	0.099
95.400	13.000	0.099
95.500	0.250	0.099
95.600	6.368	0.099
95.700	-0.928	0.100
95.800	4.784	0.099
95.900	3.785	0.100
96.000	-2.850	0.100
96.100	3.704	0.099
96.200	-6.811	0.099
96.300	9.308	0.099
96.400	-1.564	0.100
96.500	5.550	0.099
96.600	3.533	0.099
96.700	7.519	0.099
96.800	3.571	0.099
96.900	-12.946	0.099
97.000	-2.543	0.099
97.100	12.233	0.099
97.200	3.001	0.099
97.300	-6.921	0.099
97.400	3.822	0.099
97.500	3.056	0.099
97.600	5.201	0.099
97.700	-4.510	0.099
97.800	6.773	0.099
97.900	6.676	0.099
98.000	3.659	0.099
98.100	-6.529	0.099
98.200	12.365	0.099
98.300	0.619	0.099
98.400	-8.253	0.099
98.500	-6.301	0.099
98.600	15.553	0.099
98.700	4.002	0.099
98.800	0.514	0.099
98.900	-3.028	0.099
99.000	11.035	0.099
99.100	0.925	0.099
99.200	1.109	0.099
99.300	8.106	0.099
99.400	5.900	0.100
99.500	-1.269	0.099
99.600	-0.533	0.099
99.700	2.865	0.099
99.800	11.276	0.099
99.900	4.285	0.099
100.000	3.498	0.099
100.100	4.881	0.099
100.200	-18.914	0.099
100.300	9.573	0.099
100.400	-10.078	0.099
100.500	-2.730	0.099
100.600	10.126	0.099
100.700	3.598	0.099
100.800	0.455	0.099
100.900	16.885	0.099
101.000	-4.656	0.099
101.100	-1.886	0.100
101.200	2.745	0.099
101.300	0.920	0.099
101.400	-6.664	0.099
101.500	5.821	0.099
101.600	1.206	0.099
101.700	4.563	0.099
101.800	-2.516	0.099
101.900	-0.030	0.100
102.000	4.705	0.099
102.100	3.746	0.100
102.200	1.313	0.099
102.300	3.198	0.100
102.400	-8.169	0.099
102.500	-13.435	0.099
102.600	0.724	0.099
102.700	1.488	0.099
102.800	-6.245	0.099
102.900	10.646	0.099
103.000	-4.743	0.099
103.100	3.258	0.099
103.200	15.718	0.099
103.300	4.521	0.099
103.400	-3.100	0.099
103.500	10.688	0.099
103.600	4.649	0.099
103.700	1.839	0.099
103.800	-0.400	0.099
103.900	-16.260	0.099
104.000	1.437	0.099
104.100	15.889	0.100
104.200	8.449	0.099
104.300	3.701	0.100
104.400	-9.331	0.099
104.500	-0.269	0.099
104.600	0.307	0.099
104.700	10.735	0.099
104.800	-9.690	0.099
104.900	-0.489	0.099
105.000	1.221	0.099
105.100	3.951	0.099
105.200	4.476	0.099
105.300	5.559	0.099
105.400	3.728	0.099
105.500	-8.488	0.099
105.600	5.432	0.099
105.700	6.523	0.099
105.800	-7.537	0.099
105.900	8.448	0.099
106.000	-8.280	0.099
106.100	-1.977	0.099
106.200	6.031	0.099
106.300	-3.296	0.099
106.400	12.460	0.099
106.500	0.801	0.099
106.600	-4.444	0.099
106.700	0.964	0.099
106.800	6.789	0.099
106.900	5.802	0.099
107.000	12.865	0.099
107.100	1.434	0.099
107.200	4.865	0.099
107.300	-0.308	0.099
107.400	2.452	0.099
107.500	10.248	0.099
107.600	6.968	0.099
107.700	5.953	0.099
107.800	-3.162	0.099
107.900	-2.315	0.099
108.000	2.469	0.099
108.100	-7.564	0.099
108.200	11.909	0.099
108.300	-0.446	0.099
108.400	4.285	0.099
108.500	-5.113	0.099
108.600	0.833	0.099
108.700	15.292	0.099
108.800	-16.757	0.099
108.900	10.297	0.099
109.000	-2.901	0.099
109.100	8.230	0.099
109.200	-1.384	0.099
109.300	10.142	0.100
109.400	4.046	0.100
109.500	2.897	0.099
109.600	-10.321	0.099
109.700	10.124	0.099
109.800	-2.110	0.099
109.900	4.869	0.099
110.000	7.550	0.099
110.100	3.100	0.099
110.200	1.037	0.099
110.300	-0.386	0.099
110.400	-6.339	0.099
110.500	-4.800	0.099
110.600	-15.127	0.099
110.700	4.816	0.099
110.800	4.642	0.099
110.900	0.663	0.099
111.000	5.324	0.099
111.100	5.134	0.099
111.200	-8.916	0.099
111.300	7.794	0.099
111.400	10.898	0.099
111.500	-3.036	0.099
111.600	-3.921	0.099
111.700	1.848	0.099
111.800	-6.492	0.099
111.900	24.523	0.099
112.000	-11.989	0.099
112.100	4.598	0.099
112.200	-7.042	0.099
112.300	-3.475	0.099
112.400	3.142	0.099
112.500	13.785	0.099
112.600	2.604	0.099
112.700	-8.016	0.099
112.800	12.391	0.099
112.900	0.281	0.099
113.000	18.199	0.099
113.100	3.615	0.099
113.200	7.586	0.099
113.300	-3.463	0.099
113.400	-3.654	0.100
113.500	7.891	0.099
113.600	-3.223	0.099
113.700	0.585	0.099
113.800	6.569	0.099
113.900	0.145	0.099
114.000	8.228	0.099
114.100	2.733	0.099
114.200	18.096	0.099
114.300	4.484	0.099
114.400	-3.975	0.099
114.500	10.631	0.100
114.600	4.302	0.099
114.700	-2.876	0.099
114.800	-4.903	0.099
114.900	7.156	0.099
115.000	-10.880	0.099
115.100	3.312	0.099
115.200	-7.783	0.099
115.300	5.401	0.099
115.400	14.044	0.099
115.500	9.961	0.099
115.600	14.864	0.099
115.700	-4.376	0.099
115.800	-8.146	0.099
115.900	2.675	0.099
116.000	-16.790	0.099
116.100	4.603	0.099
116.200	2.140	0.099
116.300	0.903	0.099
116.400	-11.894	0.099
116.500	2.779	0.099
116.600	9.540	0.099
116.700	-5.632	0.099
116.800	7.103	0.099
116.900	0.228	0.099
117.000	2.540	0.099
117.100	1.086	0.099
117.200	8.094	0.099
117.300	5.814	0.099
117.400	4.205	0.099
117.500	0.351	0.099
117.600	12.932	0.099
117.700	-5.717	0.099
117.800	3.598	0.099
117.900	-2.601	0.099
118.000	2.448	0.099
118.100	3.271	0.100
118.200	4.688	0.100
118.300	-4.568	0.100
118.400	2.664	0.100
118.500	16.471	0.099
118.600	2.075	0.100
118.700	-1.166	0.099
118.800	-7.033	0.099
118.900	1.121	0.099
119.000	0.213	0.100
119.100	-10.461	0.099
119.200	14.013	0.100
119.300	3.121	0.100
119.400	5.744	0.100
119.500	-3.694	0.099
119.600	11.740	0.099
119.700	5.720	0.099
119.800	-5.405	0.099
119.900	13.996	0.100
120.000	1.124	0.099
120.100	9.378	0.099
120.200	1.438	0.100
120.300	12.428	0.099
120.400	-3.641	0.100
120.500	2.143	0.100
120.600	-1.976	0.099
120.700	-1.623	0.100
120.800	0.734	0.100
120.900	1.375	0.100
121.000	-6.205	0.100
121.100	-6.232	0.100
121.200	2.606	0.099
121.300	20.322	0.100
121.400	-14.159	0.100
121.500	-4.695	0.099
121.600	1.692	0.099
121.700	0.741	0.100
121.800	-2.686	0.100
121.900	20.523	0.100
122.000	-2.388	0.100
122.100	7.938	0.099
122.200	15.097	0.100
122.300	-1.952	0.099
122.400	-1.312	0.099
122.500	2.740	0.100
122.600	12.144	0.099
122.700	5.039	0.099
122.800	5.343	0.100
122.900	-0.265	0.100
123.000	-10.159	0.100
123.100	0.147	0.100
123.200	8.872	0.099
123.300	-1.186	0.100
123.400	-6.394	0.100
123.500	6.319	0.099
123.600	20.145	0.099
123.700	0.335	0.099
123.800	5.311	0.100
123.900	2.105	0.100
124.000	-0.901	0.099
124.100	0.965	0.099
124.200	-10.696	0.099
124.300	4.059	0.099
124.400	10.853	0.100
124.500	5.318	0.099
124.600	-8.868	0.099
124.700	7.074	0.100
124.800	-5.643	0.100
124.900	13.502	0.099
125.000	-4.382	0.099
125.100	-11.222	0.099
125.200	5.953	0.099
125.300	2.812	0.100
125.400	7.183	0.099
125.500	9.134	0.100
125.600	3.126	0.099
125.700	-3.672	0.099
125.800	-0.372	0.100
125.900	3.491	0.100
126.000	-4.364	0.099
126.100	3.304	0.100
126.200	-13.792	0.100
126.300	-0.606	0.099
126.400	-6.001	0.100
126.500	-12.602	0.099
126.600	-2.425	0.099
126.700	8.728	0.099
126.800	-6.570	0.100
126.900	4.936	0.100
127.000	-1.467	0.099
127.100	-3.225	0.099
127.200	4.927	0.100
127.300	10.022	0.100
127.400	10.708	0.100
127.500	-1.784	0.100
127.600	-3.073	0.100
127.700	13.679	0.100
127.800	-6.375	0.100
127.900	7.230	0.099
128.000	0.390	0.100
128.100	0.207	0.099
128.200	4.606	0.100
128.300	8.085	0.099
128.400	-1.355	0.100
128.500	7.259	0.100
128.600	1.944	0.100
128.700	-17.631	0.100
128.800	8.857	0.099
128.900	-8.760	0.100
129.000	7.598	0.099
129.100	9.393	0.100
129.200	-0.599	0.099
129.300	0.010	0.099
129.400	6.204	0.100
129.500	7.918	0.100
129.600	5.766	0.100
129.700	4.004	0.100
129.800	6.273	0.099
129.900	-6.055	0.100
130.000	8.677	0.100
130.100	-1.102	0.099
130.200	-1.704	0.100
130.300	10.728	0.099
130.400	-3.525	0.100
130.500	-2.211	0.100
130.600	1.181	0.100
130.700	3.408	0.100
130.800	-2.220	0.100
130.900	8.196	0.099
131.000	8.973	0.100
131.100	2.903	0.100
131.200	1.471	0.100
131.300	21.677	0.100
131.400	2.144	0.099
131.500	-0.746	0.100
131.600	-0.342	0.100
131.700	5.539	0.100
131.800	7.692	0.100
131.900	-7.424	0.100
132.000	10.244	0.100
132.100	7.904	0.100
132.200	-16.543	0.099
132.300	7.306	0.100
132.400	13.286	0.100
132.500	8.707	0.100
132.600	9.435	0.100
132.700	0.246	0.100
132.800	-0.882	0.100
132.900	-0.231	0.100
133.000	-0.567	0.100
133.100	-0.878	0.100
133.200	14.975	0.100
133.300	-13.141	0.099
133.400	9.581	0.100
133.500	1.250	0.100
133.600	0.943	0.100
133.700	-0.969	0.100
133.800	-2.316	0.100
133.900	4.194	0.100
134.000	0.159	0.100
134.100	1.738	0.100
134.200	2.379	0.100
134.300	-4.503	0.099
134.400	9.978	0.100
134.500	9.962	0.099
134.600	-15.181	0.100
134.700	3.456	0.100
134.800	8.561	0.099
134.900	5.681	0.100
135.000	-2.055	0.099
135.100	16.111	0.100
135.200	4.115	0.100
135.300	3.355	0.100
135.400	10.040	0.099
135.500	-6.269	0.100
135.600	3.033	0.100
135.700	2.246	0.100
135.800	7.271	0.099
135.900	13.965	0.100
136.000	-1.620	0.100
136.100	-21.813	0.100
136.200	12.651	0.100
136.300	0.573	0.099
136.400	11.615	0.100
136.500	4.522	0.100
136.600	6.835	0.100
136.700	-5.145	0.100
136.800	6.398	0.100
136.900	11.131	0.100
137.000	12.270	0.099
137.100	-2.279	0.100
137.200	0.574	0.099
137.300	7.859	0.099
137.400	-0.427	0.100
137.500	4.803	0.100
137.600	-2.938	0.099
137.700	13.232	0.099
137.800	4.384	0.099
137.900	-8.274	0.100
138.000	10.047	0.099
138.100	-3.456	0.099
138.200	9.630	0.099
138.300	3.608	0.099
138.400	3.526	0.099
138.500	-6.844	0.099
138.600	13.405	0.099
138.700	1.338	0.099
138.800	4.087	0.099
138.900	10.723	0.100
139.000	1.947	0.099
139.100	-9.189	0.099
139.200	6.907	0.099
139.300	-4.728	0.099
139.400	-3.485	0.099
139.500	-3.355	0.100
139.600	14.607	0.100
139.700	-12.148	0.099
139.800	7.104	0.099
139.900	4.393	0.100
140.000	18.230	0.100
140.100	1.609	0.100
140.200	-5.582	0.100
140.300	10.336	0.099
140.400	-6.473	0.100
140.500	-5.075	0.100
140.600	-7.081	0.099
140.700	16.706	0.100
140.800	10.953	0.100
140.900	1.373	0.099
141.000	-12.231	0.100
141.100	-1.795	0.099
141.200	2.832	0.100
141.300	11.058	0.099
141.400	-2.214	0.100
141.500	-7.793	0.099
141.600	13.360	0.099
141.700	3.979	0.099
141.800	4.128	0.100
141.900	-5.319	0.099
142.000	2.054	0.099
142.100	1.713	0.099
142.200	0.613	0.099
142.300	-1.374	0.100
142.400	-1.529	0.099
142.500	-0.128	0.100
142.600	14.941	0.099
142.700	6.362	0.099
142.800	8.259	0.100
142.900	-1.432	0.099
143.000	15.112	0.099
143.100	-4.201	0.099
143.200	-2.031	0.099
143.300	11.124	0.100
143.400	-3.037	0.099
143.500	11.299	0.099
143.600	8.250	0.100
143.700	-3.090	0.100
143.800	-0.237	0.099
143.900	-1.699	0.099
144.000	1.926	0.100
144.100	7.327	0.100
144.200	-2.809	0.099
144.300	2.699	0.100
144.400	10.352	0.099
144.500	2.103	0.100
144.600	-4.549	0.099
144.700	8.990	0.100
144.800	2.193	0.100
144.900	-2.196	0.100
145.000	5.763	0.099
145.100	-4.015	0.099
145.200	7.109	0.099
145.300	6.497	0.099
145.400	-4.541	0.099
145.500	6.607	0.100
145.600	9.460	0.099
145.700	-6.186	0.099
145.800	-9.457	0.100
145.900	3.759	0.099
146.000	8.697	0.100
146.100	0.361	0.099
146.200	8.450	0.100
146.300	4.616	0.100
146.400	18.110	0.099
146.500	-15.725	0.100
146.600	11.116	0.099
146.700	3.242	0.099
146.800	-1.242	0.100
146.900	3.898	0.100
147.000	-3.241	0.100
147.100	17.090	0.100
147.200	-15.763	0.100
147.300	4.865	0.100
147.400	10.200	0.100
147.500	1.311	0.100
147.600	8.118	0.100
147.700	9.255	0.099
147.800	3.517	0.099
147.900	1.462	0.099
148.000	3.650	0.099
148.100	-1.882	0.099
148.200	1.471	0.100
148.300	-7.198	0.099
148.400	0.042	0.099
148.500	2.301	0.100
148.600	-2.127	0.100
148.700	2.582	0.100
148.800	3.086	0.100
148.900	-13.067	0.099
149.000	7.775	0.100
149.100	9.443	0.100
149.200	7.817	0.100
149.300	-2.384	0.100
149.400	15.890	0.100
149.500	7.517	0.100
149.600	5.496	0.100
149.700	7.268	0.100
149.800	7.621	0.100
149.900	-9.763	0.100
150.000	12.555	0.099
150.100	-0.122	0.100
150.200	9.632	0.100
150.300	6.782	0.100
150.400	6.999	0.100
150.500	-4.101	0.100
150.600	3.920	0.100
150.700	-0.101	0.100
150.800	0.950	0.100
150.900	10.361	0.100
151.000	-0.655	0.099
151.100	-0.283	0.100
151.200	3.338	0.100
151.300	-6.643	0.100
151.400	10.220	0.100
151.500	-1.281	0.100
151.600	-5.416	0.099
151.700	-0.842	0.099
151.800	13.822	0.099
151.900	4.372	0.100
152.000	10.776	0.099
152.100	-17.481	0.099
152.200	8.380	0.099
152.300	4.239	0.100
152.400	8.972	0.099
152.500	8.196	0.100
152.600	-6.553	0.100
152.700	-5.974	0.100
152.800	23.368	0.100
152.900	-0.461	0.100
153.000	2.092	0.099
153.100	-13.817	0.100
153.200	14.898	0.100
153.300	16.976	0.100
153.400	4.156	0.100
153.500	8.831	0.100
153.600	-6.405	0.099
153.700	0.312	0.100
153.800	7.539	0.099
153.900	0.488	0.100
154.000	8.128	0.099
154.100	-2.485	0.100
154.200	4.457	0.100
154.300	6.680	0.100
154.400	-6.225	0.100
154.500	-0.437	0.100
154.600	16.269	0.100
154.700	5.122	0.099
154.800	13.822	0.099
154.900	-2.425	0.100
155.000	2.724	0.100
155.100	6.368	0.100
155.200	10.034	0.100
155.300	2.007	0.100
155.400	-3.376	0.100
155.500	13.278	0.100
155.600	2.108	0.100
155.700	-5.755	0.100
155.800	1.368	0.100
155.900	-2.303	0.100
156.000	-2.074	0.099
156.100	-8.717	0.100
156.200	4.014	0.099
156.300	8.319	0.100
156.400	8.928	0.099
156.500	9.233	0.100
156.600	-0.025	0.100
156.700	0.620	0.100
156.800	-0.909	0.099
156.900	7.755	0.100
157.000	3.718	0.100
157.100	2.452	0.100
157.200	-0.660	0.100
157.300	4.064	0.100
157.400	1.221	0.099
157.500	17.464	0.100
157.600	9.012	0.100
157.700	-6.741	0.100
157.800	-1.704	0.100
157.900	7.266	0.100
158.000	0.210	0.100
158.100	7.629	0.100
158.200	7.699	0.100
158.300	-7.292	0.100
158.400	7.387	0.100
158.500	4.862	0.100
158.600	-17.135	0.099
158.700	21.614	0.100
158.800	-4.259	0.100
158.900	10.926	0.100
159.000	10.331	0.100
159.100	-9.742	0.100
159.200	6.900	0.100
159.300	2.441	0.100
159.400	-12.004	0.100
159.500	1.208	0.100
159.600	13.623	0.100
159.700	-1.222	0.100
159.800	-0.419	0.100
159.900	7.715	0.100
160.000	14.942	0.100
160.100	5.497	0.100
160.200	-5.167	0.100
160.300	-0.870	0.100
160.400	-0.024	0.100
160.500	-2.006	0.099
160.600	16.413	0.100
160.700	2.350	0.099
160.800	9.953	0.099
160.900	6.409	0.100
161.000	-7.180	0.099
161.100	4.999	0.100
161.200	2.157	0.100
161.300	5.205	0.099
161.400	8.501	0.100
161.500	-12.377	0.100
161.600	21.495	0.100
161.700	15.581	0.100
161.800	-6.549	0.100
161.900	8.918	0.100
162.000	-3.458	0.100
162.100	6.060	0.100
162.200	6.128	0.100
162.300	-12.973	0.100
162.400	14.216	0.100
162.500	4.877	0.100
162.600	5.739	0.100
162.700	-2.348	0.100
162.800	3.253	0.100
162.900	-0.676	0.099
163.000	11.074	0.099
163.100	1.819	0.099
163.200	15.341	0.100
163.300	-4.466	0.100
163.400	-5.507	0.100
163.500	-1.537	0.100
163.600	-0.303	0.100
163.700	6.302	0.100
163.800	9.709	0.100
163.900	-0.507	0.099
164.000	5.525	0.100
164.100	5.660	0.100
164.200	-2.063	0.100
164.300	7.228	0.100
164.400	3.446	0.100
164.500	4.406	0.099
164.600	-2.386	0.099
164.700	6.409	0.100
164.800	-3.352	0.100
164.900	3.531	0.099
165.000	-0.815	0.100
165.100	-11.421	0.099
165.200	13.693	0.099
165.300	3.830	0.099
165.400	5.722	0.099
165.500	-4.021	0.100
165.600	14.928	0.100
165.700	-15.589	0.100
165.800	8.540	0.100
165.900	-1.144	0.099
166.000	4.487	0.100
166.100	2.381	0.100
166.200	-0.107	0.100
166.300	5.032	0.099
166.400	4.735	0.100
166.500	11.085	0.100
166.600	-3.468	0.099
166.700	4.416	0.100
166.800	-2.567	0.100
166.900	-8.369	0.100
167.000	-0.870	0.099
167.100	5.670	0.100
167.200	12.323	0.100
167.300	-5.365	0.100
167.400	2.889	0.100
167.500	0.267	0.100
167.600	-0.584	0.100
167.700	9.760	0.099
167.800	6.742	0.100
167.900	16.444	0.100
168.000	-5.540	0.100
168.100	1.902	0.100
168.200	2.058	0.100
168.300	14.065	0.100
168.400	-7.126	0.099
168.500	10.479	0.100
168.600	-10.009	0.100
168.700	11.387	0.100
168.800	4.887	0.099
168.900	-9.586	0.100
169.000	9.833	0.099
169.100	9.866	0.100
169.200	-0.576	0.099
169.300	4.262	0.100
169.400	2.227	0.099
169.500	6.433	0.099
169.600	12.562	0.100
169.700	-8.535	0.100
169.800	7.254	0.100
169.900	-1.876	0.100
170.000	0.439	0.100
170.100	5.312	0.099
170.200	9.231	0.099
170.300	4.511	0.099
170.400	4.677	0.099
170.500	8.550	0.100
170.600	-13.006	0.100
170.700	14.232	0.099
170.800	10.066	0.100
170.900	3.227	0.100
171.000	-6.122	0.100
171.100	-1.380	0.100
171.200	5.080	0.100
171.300	5.666	0.100
171.400	4.371	0.100
171.500	6.936	0.100
171.600	3.091	0.100
171.700	-4.890	0.100
171.800	7.137	0.100
171.900	3.131	0.100
172.000	-9.295	0.100
172.100	-0.558	0.100
172.200	11.470	0.099
172.300	-3.855	0.099
172.400	7.632	0.099
172.500	-2.487	0.099
172.600	0.017	0.099
172.700	-1.675	0.100
172.800	3.855	0.100
172.900	19.084	0.100
173.000	0.049	0.100
173.100	2.101	0.100
173.200	10.334	0.099
173.300	-4.395	0.100
173.400	6.992	0.100
173.500	6.382	0.100
173.600	3.207	0.100
173.700	5.747	0.100
173.800	3.092	0.100
173.900	11.867	0.100
174.000	-2.082	0.100
174.100	7.069	0.100
174.200	5.828	0.099
174.300	-10.834	0.099
174.400	20.205	0.099
174.500	-0.082	0.100
174.600	-1.650	0.100
174.700	24.630	0.100
174.800	9.799	0.100
174.900	8.567	0.100
175.000	7.131	0.100
175.100	0.142	0.100
175.200	3.735	0.099
175.300	6.947	0.100
175.400	11.306	0.099
175.500	2.181	0.100
175.600	-0.324	0.100
175.700	-5.243	0.099
175.800	9.348	0.100
175.900	-2.613	0.100
176.000	9.842	0.100
176.100	8.359	0.099
176.200	-2.014	0.100
176.300	2.620	0.100
176.400	3.190	0.100
176.500	-5.581	0.100
176.600	-12.009	0.100
176.700	6.662	0.100
176.800	2.493	0.100
176.900	-9.976	0.100
177.000	3.356	0.100
177.100	4.612	0.100
177.200	8.392	0.100
177.300	1.115	0.099
177.400	3.448	0.100
177.500	-0.791	0.100
177.600	12.258	0.100
177.700	10.194	0.099
177.800	-2.586	0.100
177.900	-2.365	0.100
178.000	13.243	0.100
178.100	-3.721	0.099
178.200	0.288	0.100
178.300	-12.516	0.100
178.400	1.269	0.100
178.500	-1.305	0.099
178.600	2.635	0.100
178.700	1.707	0.100
178.800	17.141	0.099
178.900	-0.517	0.100
179.000	14.883	0.100
179.100	11.921	0.100
179.200	-6.027	0.100
179.300	8.066	0.100
179.400	5.297	0.100
179.500	7.755	0.100
179.600	-4.283	0.100
179.700	1.008	0.100
179.800	11.151	0.100
179.900	4.611	0.100
180.000	8.623	0.100
180.100	-12.451	0.100
180.200	9.013	0.100
180.300	19.443	0.100
180.400	7.951	0.100
180.500	-3.571	0.100
180.600	-2.295	0.100
180.700	16.468	0.100
180.800	1.398	0.100
180.900	14.244	0.100
181.000	4.865	0.100
181.100	11.419	0.100
181.200	5.852	0.100
181.300	7.837	0.100
181.400	-1.984	0.099
181.500	5.343	0.100
181.600	4.228	0.100
181.700	0.051	0.100
181.800	14.804	0.100
181.900	8.791	0.100
182.000	-10.469	0.100
182.100	8.089	0.100
182.200	4.126	0.100
182.300	-8.567	0.099
182.400	8.819	0.099
182.500	9.831	0.100
182.600	1.543	0.100
182.700	5.528	0.100
182.800	8.012	0.100
182.900	5.015	0.100
183.000	12.195	0.100
183.100	3.986	0.100
183.200	-3.781	0.100
183.300	14.137	0.100
183.400	11.032	0.100
183.500	2.355	0.100
183.600	1.877	0.100
183.700	0.663	0.100
183.800	-8.501	0.099
183.900	17.148	0.100
184.000	11.532	0.100
184.100	4.125	0.100
184.200	-1.044	0.100
184.300	-2.386	0.100
184.400	-4.867	0.100
184.500	11.090	0.100
184.600	-11.118	0.100
184.700	12.598	0.100
184.800	5.246	0.099
184.900	-1.223	0.100
185.000	12.652	0.100
185.100	5.828	0.100
185.200	-1.316	0.100
185.300	6.120	0.100
185.400	5.634	0.100
185.500	0.322	0.100
185.600	3.940	0.100
185.700	12.700	0.100
185.800	3.840	0.100
185.900	4.016	0.100
186.000	5.007	0.100
186.100	-0.801	0.100
186.200	16.501	0.099
186.300	4.100	0.100
186.400	-1.773	0.100
186.500	8.782	0.100
186.600	3.483	0.100
186.700	2.781	0.100
186.800	5.529	0.099
186.900	-0.941	0.100
187.000	-2.923	0.100
187.100	4.827	0.100
187.200	1.582	0.100
187.300	8.066	0.100
187.400	8.517	0.100
187.500	9.586	0.100
187.600	7.306	0.100
187.700	-1.716	0.100
187.800	12.583	0.100
187.900	4.847	0.100
188.000	10.083	0.100
188.100	0.062	0.100
188.200	-1.535	0.100
188.300	0.093	0.100
188.400	4.218	0.100
188.500	9.727	0.099
188.600	10.418	0.100
188.700	10.024	0.100
188.800	3.827	0.100
188.900	5.361	0.100
189.000	3.325	0.100
189.100	7.759	0.100
189.200	9.023	0.100
189.300	10.472	0.100
189.400	0.066	0.099
189.500	2.612	0.100
189.600	-2.291	0.100
189.700	5.597	0.100
189.800	0.868	0.100
189.900	19.748	0.100
190.000	6.684	0.100
190.100	6.371	0.100
190.200	3.294	0.099
190.300	5.926	0.100
190.400	2.597	0.100
190.500	15.041	0.099
190.600	2.482	0.099
190.700	15.573	0.100
190.800	13.471	0.100
190.900	6.356	0.100
191.000	11.408	0.100
191.100	0.705	0.100
191.200	5.148	0.100
191.300	8.153	0.099
191.400	9.074	0.099
191.500	4.390	0.099
191.600	16.736	0.099
191.700	10.843	0.100
191.800	7.756	0.100
191.900	4.357	0.100
192.000	8.576	0.099
192.100	-3.738	0.099
192.200	20.589	0.100
192.300	13.995	0.100
192.400	-10.538	0.099
192.500	12.435	0.100
192.600	4.629	0.100
192.700	6.637	0.099
192.800	0.236	0.099
192.900	2.990	0.100
193.000	5.913	0.100
193.100	2.291	0.099
193.200	16.919	0.100
193.300	7.852	0.099
193.400	7.418	0.100
193.500	-0.367	0.100
193.600	11.169	0.100
193.700	3.611	0.100
193.800	4.424	0.100
193.900	-8.298	0.100
194.000	1.625	0.099
194.100	-3.338	0.100
194.200	13.276	0.100
194.300	12.163	0.100
194.400	5.845	0.099
194.500	14.233	0.100
194.600	-14.828	0.100
194.700	3.704	0.099
194.800	27.548	0.100
194.900	3.014	0.100
195.000	8.353	0.100
195.100	7.835	0.100
195.200	-1.922	0.100
195.300	-6.077	0.100
195.400	-3.348	0.099
195.500	3.641	0.100
195.600	24.719	0.100
195.700	-0.831	0.100
195.800	10.101	0.100
195.900	15.019	0.100
196.000	-0.146	0.099
196.100	-1.280	0.100
196.200	7.135	0.100
196.300	15.130	0.099
196.400	-7.947	0.100
196.500	9.271	0.100
196.600	-4.228	0.100
196.700	6.268	0.100
196.800	21.696	0.099
196.900	-0.941	0.100
197.000	-3.930	0.099
197.100	11.114	0.100
197.200	9.761	0.100
197.300	-7.253	0.100
197.400	-6.932	0.100
197.500	6.075	0.100
197.600	2.263	0.100
197.700	11.394	0.099
197.800	5.057	0.100
197.900	-9.795	0.100
198.000	6.327	0.100
198.100	4.650	0.100
198.200	8.171	0.099
198.300	6.215	0.100
198.400	-4.726	0.100
198.500	2.100	0.099
198.600	13.745	0.100
198.700	-12.126	0.099
198.800	7.203	0.099
198.900	4.200	0.100
199.000	3.804	0.099
199.100	7.352	0.100
199.200	12.022	0.100
199.300	-0.626	0.100
199.400	15.105	0.100
199.500	0.761	0.100
199.600	2.498	0.100
199.700	7.202	0.100
199.800	0.962	0.100
199.900	17.798	0.099
200.000	-7.326	0.099
200.100	-3.312	0.099
200.200	0.056	0.100
200.300	11.470	0.100
200.400	12.025	0.100
200.500	3.367	0.100
200.600	6.076	0.099
200.700	-1.129	0.100
200.800	8.840	0.099
200.900	-7.179	0.100
201.000	11.236	0.100
201.100	2.804	0.100
201.200	2.714	0.100
201.300	8.048	0.100
201.400	11.925	0.100
201.500	-1.623	0.099
201.600	2.863	0.100
201.700	9.231	0.099
201.800	-0.227	0.099
201.900	12.094	0.100
202.000	8.075	0.100
202.100	-6.528	0.100
202.200	7.039	0.100
202.300	-0.228	0.100
202.400	13.795	0.100
202.500	2.685	0.099
202.600	8.449	0.100
202.700	-5.751	0.100
202.800	12.940	0.100
202.900	-0.493	0.100
203.000	3.317	0.100
203.100	6.940	0.100
203.200	-11.334	0.099
203.300	-6.827	0.099
203.400	7.061	0.099
203.500	20.875	0.100
203.600	8.797	0.100
203.700	2.834	0.100
203.800	9.961	0.100
203.900	-4.876	0.100
204.000	2.661	0.100
204.100	7.621	0.100
204.200	-9.819	0.100
204.300	-1.155	0.100
204.400	1.599	0.100
204.500	3.598	0.100
204.600	13.434	0.099
204.700	-4.818	0.100
204.800	7.072	0.100
204.900	4.282	0.100
205.000	4.594	0.100
205.100	2.958	0.100
205.200	8.985	0.100
205.300	4.079	0.100
205.400	-6.691	0.100
205.500	6.448	0.100
205.600	-1.189	0.100
205.700	3.915	0.100
205.800	-0.475	0.100
205.900	3.354	0.100
206.000	15.656	0.100
206.100	6.050	0.100
206.200	-8.975	0.100
206.300	18.808	0.100
206.400	-3.875	0.100
206.500	4.342	0.100
206.600	16.355	0.100
206.700	0.137	0.099
206.800	1.712	0.100
206.900	8.471	0.100
207.000	1.654	0.100
207.100	-0.944	0.100
207.200	10.025	0.100
207.300	7.606	0.100
207.400	-0.747	0.100
207.500	-3.854	0.100
207.600	-7.203	0.100
207.700	5.597	0.100
207.800	9.590	0.100
207.900	-0.209	0.100
208.000	-5.983	0.099
208.100	13.484	0.100
208.200	9.664	0.100
208.300	-2.612	0.100
208.400	-4.462	0.100
208.500	9.923	0.100
208.600	1.031	0.100
208.700	7.288	0.100
208.800	2.626	0.100
208.900	3.606	0.100
209.000	11.968	0.100
209.100	-0.340	0.099
209.200	3.734	0.100
209.300	-1.424	0.100
209.400	-2.370	0.100
209.500	-0.157	0.100
209.600	1.685	0.100
209.700	12.257	0.100
209.800	18.068	0.099
209.900	5.058	0.100
210.000	2.851	0.100
210.100	-1.925	0.099
210.200	0.108	0.100
210.300	6.823	0.099
210.400	6.577	0.099
210.500	-11.342	0.100
210.600	2.688	0.099
210.700	-0.348	0.100
210.800	10.333	0.100
210.900	8.594	0.100
211.000	0.608	0.100
211.100	15.563	0.100
211.200	6.811	0.100
211.300	-0.665	0.100
211.400	1.716	0.100
211.500	8.506	0.100
211.600	5.709	0.100
211.700	6.248	0.100
211.800	16.621	0.100
211.900	-0.963	0.100
212.000	8.147	0.100
212.100	6.280	0.100
212.200	17.968	0.100
212.300	-4.843	0.100
212.400	-14.250	0.100
212.500	4.857	0.099
212.600	6.137	0.099
212.700	11.105	0.100
212.800	4.276	0.100
212.900	8.869	0.100
213.000	19.029	0.100
213.100	-16.702	0.100
213.200	-1.671	0.099
213.300	2.750	0.099
213.400	8.028	0.100
213.500	-11.113	0.099
213.600	3.858	0.099
213.700	0.803	0.100
213.800	11.617	0.100
213.900	-6.220	0.100
214.000	3.358	0.099
214.100	5.287	0.099
214.200	-5.256	0.100
214.300	-0.542	0.099
214.400	2.853	0.099
214.500	1.422	0.100
214.600	-2.625	0.099
214.700	4.821	0.100
214.800	2.575	0.100
214.900	-1.744	0.100
215.000	8.486	0.100
215.100	-1.591	0.100
215.200	1.674	0.099
215.300	-2.028	0.099
215.400	4.575	0.100
215.500	10.305	0.099
215.600	8.223	0.099
215.700	-0.984	0.099
215.800	2.962	0.099
215.900	1.712	0.099
216.000	10.339	0.099
216.100	-1.541	0.099
216.200	12.704	0.099
216.300	1.356	0.099
216.400	4.582	0.099
216.500	-0.436	0.099
216.600	7.564	0.100
216.700	0.544	0.100
216.800	-2.570	0.099
216.900	-1.932	0.099
217.000	-7.523	0.100
217.100	17.922	0.099
217.200	14.811	0.100
217.300	-3.550	0.100
217.400	5.840	0.099
217.500	-0.612	0.099
217.600	1.277	0.100
217.700	13.211	0.099
217.800	-7.536	0.100
217.900	-6.148	0.100
218.000	0.650	0.099
218.100	-0.039	0.099
218.200	3.572	0.099
218.300	-1.715	0.100
218.400	4.971	0.099
218.500	7.062	0.099
218.600	5.735	0.099
218.700	8.720	0.100
218.800	10.973	0.099
218.900	-9.388	0.099
219.000	17.056	0.099
219.100	8.861	0.100
219.200	10.253	0.100
219.300	-5.105	0.100
219.400	-14.289	0.100
219.500	8.899	0.100
219.600	0.162	0.100
219.700	12.679	0.100
219.800	8.827	0.100
219.900	11.438	0.099
220.000	8.004	0.100
220.100	6.485	0.100
220.200	-5.453	0.100
220.300	5.737	0.099
220.400	5.268	0.100
220.500	13.028	0.100
220.600	-7.667	0.100
220.700	-8.433	0.100
220.800	10.825	0.100
220.900	1.293	0.099
221.000	-1.417	0.100
221.100	6.373	0.100
221.200	-0.648	0.099
221.300	15.531	0.100
221.400	-1.683	0.099
221.500	3.634	0.099
221.600	3.754	0.099
221.700	3.175	0.099
221.800	13.215	0.099
221.900	-6.533	0.099
222.000	-7.378	0.099
222.100	23.652	0.100
222.200	8.132	0.099
222.300	11.238	0.099
222.400	-13.581	0.100
222.500	7.869	0.100
222.600	5.343	0.100
222.700	1.603	0.099
222.800	2.587	0.100
222.900	5.819	0.099
223.000	3.309	0.099
223.100	11.920	0.099
223.200	3.443	0.100
223.300	-2.131	0.099
223.400	9.567	0.099
223.500	10.796	0.099
223.600	-2.253	0.100
223.700	14.993	0.099
223.800	12.139	0.100
223.900	15.286	0.099
224.000	4.515	0.099
224.100	0.818	0.099
224.200	5.871	0.100
224.300	-1.384	0.100
224.400	19.423	0.100
224.500	6.921	0.100
224.600	-2.243	0.100
224.700	-2.931	0.100
224.800	-1.506	0.099
224.900	6.107	0.100
225.000	1.770	0.099
225.100	1.719	0.100
225.200	10.195	0.100
225.300	6.732	0.099
225.400	18.292	0.100
225.500	-1.816	0.100
225.600	3.849	0.099
225.700	5.687	0.100
225.800	6.809	0.100
225.900	3.184	0.100
226.000	0.304	0.100
226.100	1.056	0.100
226.200	-6.329	0.100
226.300	-7.060	0.100
226.400	-1.897	0.100
226.500	19.241	0.099
226.600	11.549	0.099
226.700	4.416	0.100
226.800	-2.881	0.099
226.900	-10.736	0.099
227.000	-2.079	0.100
227.100	10.416	0.100
227.200	3.664	0.099
227.300	14.825	0.100
227.400	15.301	0.099
227.500	3.305	0.099
227.600	-1.915	0.099
227.700	4.422	0.099
227.800	12.964	0.100
227.900	2.833	0.100
228.000	-4.450	0.100
228.100	9.754	0.099
228.200	4.380	0.099
228.300	24.613	0.100
228.400	-3.720	0.099
228.500	10.634	0.099
228.600	2.114	0.100
228.700	0.983	0.100
228.800	8.629	0.100
228.900	-5.115	0.100
229.000	-3.708	0.100
229.100	2.166	0.099
229.200	-0.855	0.100
229.300	-2.115	0.099
229.400	15.410	0.099
229.500	6.245	0.099
229.600	11.683	0.100
229.700	3.237	0.099
229.800	6.526	0.100
229.900	2.703	0.100
230.000	3.601	0.100
230.100	6.878	0.099
230.200	11.810	0.100
230.300	21.242	0.099
230.400	-6.535	0.099
230.500	0.081	0.100
230.600	1.326	0.100
230.700	-2.163	0.099
230.800	1.143	0.100
230.900	6.037	0.100
231.000	-1.359	0.100
231.100	9.866	0.100
231.200	-9.762	0.100
231.300	-0.961	0.100
231.400	2.801	0.100
231.500	-0.704	0.099
231.600	3.704	0.100
231.700	11.898	0.099
231.800	-0.501	0.100
231.900	-14.922	0.100
232.000	9.847	0.099
232.100	3.466	0.100
232.200	-8.822	0.100
232.300	1.707	0.100
232.400	13.838	0.100
232.500	-1.246	0.100
232.600	12.440	0.100
232.700	12.702	0.100
232.800	2.709	0.099
232.900	-3.664	0.100
233.000	6.242	0.100
233.100	-3.867	0.100
233.200	14.463	0.099
233.300	0.346	0.100
233.400	1.420	0.100
233.500	12.343	0.100
233.600	18.093	0.099
233.700	-1.992	0.100
233.800	0.563	0.100
233.900	5.934	0.100
234.000	2.404	0.100
234.100	4.442	0.100
234.200	-2.185	0.099
234.300	11.518	0.100
234.400	-5.387	0.100
234.500	6.508	0.100
234.600	10.012	0.100
234.700	-2.941	0.100
234.800	-0.689	0.100
234.900	-1.792	0.100
235.000	0.528	0.099
235.100	4.218	0.100
235.200	-11.572	0.099
235.300	6.497	0.100
235.400	16.460	0.100
235.500	7.179	0.100
235.600	-0.483	0.100
235.700	-6.566	0.100
235.800	-5.107	0.100
235.900	13.236	0.100
236.000	5.075	0.100
236.100	5.975	0.099
236.200	-3.522	0.100
236.300	-4.754	0.099
236.400	9.842	0.099
236.500	2.614	0.100
236.600	3.510	0.099
236.700	0.028	0.099
236.800	-2.695	0.100
236.900	15.747	0.099
237.000	10.131	0.100
237.100	-4.876	0.100
237.200	12.515	0.100
237.300	0.986	0.099
237.400	2.750	0.100
237.500	10.495	0.100
237.600	1.365	0.099
237.700	12.568	0.100
237.800	6.013	0.100
237.900	3.263	0.100
238.000	10.583	0.100
238.100	-7.242	0.100
238.200	5.265	0.100
238.300	7.268	0.099
238.400	-2.736	0.100
238.500	-1.969	0.099
238.600	19.352	0.099
238.700	9.564	0.100
238.800	5.123	0.100
238.900	8.971	0.099
239.000	10.279	0.100
239.100	12.114	0.100
239.200	-3.427	0.099
239.300	-1.746	0.099
239.400	9.891	0.099
239.500	7.930	0.099
239.600	-9.637	0.099
239.700	19.898	0.100
239.800	4.018	0.100
239.900	-4.333	0.100
240.000	13.007	0.099
240.100	0.683	0.100
240.200	-0.181	0.099
240.300	3.368	0.099
240.400	-6.476	0.099
240.500	0.122	0.099
240.600	10.801	0.100
240.700	-6.697	0.099
240.800	-3.450	0.099
240.900	4.992	0.100
241.000	0.050	0.099
241.100	-7.158	0.100
241.200	7.351	0.100
241.300	6.794	0.099
241.400	0.302	0.100
241.500	2.646	0.100
241.600	1.653	0.100
241.700	3.408	0.100
241.800	-0.554	0.100
241.900	8.703	0.100
242.000	-0.762	0.099
242.100	7.096	0.100
242.200	-7.787	0.100
242.300	-7.363	0.099
242.400	4.920	0.100
242.500	-8.930	0.100
242.600	16.975	0.100
242.700	5.298	0.100
242.800	1.433	0.100
242.900	-1.682	0.100
243.000	2.446	0.099
243.100	10.590	0.100
243.200	-0.434	0.099
243.300	15.681	0.099
243.400	5.653	0.099
243.500	-6.550	0.099
243.600	-5.594	0.100
243.700	3.746	0.099
243.800	-5.806	0.100
243.900	0.408	0.099
244.000	-9.445	0.100
244.100	9.188	0.099
244.200	6.475	0.100
244.300	-4.882	0.100
244.400	5.779	0.100
244.500	-11.239	0.099
244.600	6.322	0.099
244.700	4.640	0.099
244.800	10.247	0.100
244.900	-1.638	0.099
245.000	-11.611	0.099
245.100	-4.102	0.100
245.200	6.656	0.100
245.300	-4.635	0.099
245.400	2.582	0.100
245.500	-3.560	0.100
245.600	-6.867	0.099
245.700	-9.785	0.099
245.800	-0.425	0.100
245.900	-11.778	0.100
246.000	15.631	0.100
246.100	2.456	0.099
246.200	-4.553	0.099
246.300	0.925	0.100
246.400	-1.675	0.099
246.500	-4.844	0.100
246.600	14.343	0.100
246.700	9.355	0.100
246.800	2.265	0.100
246.900	3.860	0.100
247.000	0.502	0.100
247.100	2.079	0.100
247.200	4.063	0.100
247.300	-12.586	0.099
247.400	10.527	0.100
247.500	2.252	0.099
247.600	-19.194	0.100
247.700	1.527	0.100
247.800	5.152	0.100
247.900	-6.078	0.100
248.000	-6.593	0.100
248.100	7.107	0.100
248.200	5.498	0.099
248.300	2.318	0.100
248.400	-2.046	0.100
248.500	-11.429	0.100
248.600	-5.743	0.100
248.700	-0.006	0.100
248.800	3.272	0.100
248.900	5.746	0.099
249.000	4.956	0.099
249.100	-7.975	0.100
249.200	-0.608	0.099
249.300	2.064	0.100
249.400	3.491	0.100
249.500	6.815	0.100
249.600	5.030	0.100
249.700	-15.788	0.100
249.800	-9.632	0.099
249.900	8.406	0.100
250.000	23.276	0.100
250.100	4.682	0.100
250.200	2.548	0.100
250.300	1.848	0.100
250.400	6.211	0.100
250.500	-5.608	0.100
250.600	4.543	0.100
250.700	-5.259	0.100
250.800	4.530	0.100
250.900	6.376	0.100
251.000	2.954	0.100
251.100	-2.436	0.100
251.200	1.776	0.100
251.300	-1.935	0.100
251.400	3.233	0.099
251.500	5.607	0.100
251.600	5.457	0.100
251.700	6.750	0.099
251.800	5.656	0.100
251.900	-12.364	0.100
252.000	10.397	0.100
252.100	7.996	0.100
252.200	2.149	0.100
252.300	-8.249	0.099
252.400	-4.535	0.100
252.500	5.277	0.100
252.600	-2.065	0.100
252.700	-2.885	0.100
252.800	10.416	0.100
252.900	1.735	0.100
253.000	8.570	0.100
253.100	-2.753	0.099
253.200	-2.576	0.100
253.300	12.435	0.100
253.400	-0.290	0.100
253.500	20.096	0.100
253.600	12.207	0.099
253.700	-5.807	0.100
253.800	1.539	0.099
253.900	8.344	0.100
254.000	-4.764	0.100
254.100	5.340	0.099
254.200	2.405	0.100
254.300	6.630	0.100
254.400	-3.759	0.099
254.500	1.574	0.100
254.600	-0.265	0.100
254.700	9.123	0.099
254.800	5.456	0.099
254.900	-0.752	0.100
255.000	0.810	0.100
255.100	7.165	0.100
255.200	4.916	0.100
255.300	1.449	0.100
255.400	-2.614	0.100
255.500	7.653	0.100
255.600	-1.287	0.100
255.700	13.620	0.100
255.800	3.463	0.100
255.900	-6.115	0.100
256.000	5.112	0.100
256.100	-7.796	0.100
256.200	0.724	0.099
256.300	5.522	0.099
256.400	7.613	0.100
256.500	15.182	0.100
256.600	-5.428	0.100
256.700	-3.826	0.100
256.800	11.247	0.100
256.900	5.907	0.099
257.000	-4.447	0.099
257.100	11.494	0.099
257.200	-2.604	0.099
257.300	4.448	0.100
257.400	7.621	0.099
257.500	-3.658	0.100
257.600	-6.500	0.100
257.700	-2.799	0.100
257.800	11.754	0.100
257.900	-4.330	0.100
258.000	1.889	0.099
258.100	2.624	0.100
258.200	-0.063	0.100
258.300	-3.871	0.100
258.400	10.758	0.100
258.500	6.109	0.100
258.600	3.017	0.099
258.700	-0.539	0.100
258.800	7.905	0.100
258.900	2.603	0.099
259.000	2.471	0.100
259.100	9.720	0.100
259.200	-5.145	0.100
259.300	-4.662	0.100
259.400	5.940	0.100
259.500	-1.977	0.099
259.600	0.220	0.100
259.700	-3.975	0.100
259.800	-9.188	0.100
259.900	-1.220	0.100
260.000	7.154	0.100
260.100	4.987	0.100
260.200	-4.034	0.100
260.300	3.752	0.100
260.400	8.821	0.100
260.500	-6.424	0.100
260.600	-9.631	0.100
260.700	6.651	0.099
260.800	1.989	0.100
260.900	4.585	0.100
261.000	-3.147	0.099
261.100	-6.253	0.100
261.200	-0.947	0.100
261.300	6.772	0.100
261.400	1.179	0.100
261.500	-5.364	0.100
261.600	0.406	0.100
261.700	3.682	0.099
261.800	1.834	0.099
261.900	-7.352	0.100
262.000	-5.733	0.100
262.100	3.321	0.100
262.200	11.553	0.100
262.300	12.512	0.100
262.400	2.644	0.100
262.500	9.278	0.100
262.600	3.011	0.100
262.700	0.044	0.100
262.800	-11.884	0.099
262.900	-4.774	0.099
263.000	14.439	0.100
263.100	8.932	0.100
263.200	6.814	0.100
263.300	-11.277	0.100
263.400	6.541	0.100
263.500	1.328	0.100
263.600	-3.541	0.100
263.700	4.737	0.100
263.800	-0.786	0.100
263.900	7.842	0.100
264.000	-12.514	0.100
264.100	8.925	0.100
264.200	5.701	0.100
264.300	11.551	0.100
264.400	-14.135	0.100
264.500	7.411	0.100
264.600	3.056	0.100
264.700	6.667	0.100
264.800	-0.592	0.100
264.900	-18.687	0.100
265.000	-4.908	0.100
265.100	-5.927	0.100
265.200	-12.105	0.100
265.300	7.915	0.100
265.400	3.078	0.100
265.500	6.836	0.100
265.600	16.040	0.100
265.700	-5.512	0.100
265.800	-9.831	0.100
265.900	8.710	0.100
266.000	7.941	0.100
266.100	-7.687	0.100
266.200	-7.022	0.099
266.300	7.609	0.100
266.400	10.606	0.100
266.500	-1.255	0.100
266.600	1.994	0.100
266.700	3.208	0.100
266.800	-7.903	0.100
266.900	18.939	0.100
267.000	2.369	0.100
267.100	-10.768	0.100
267.200	-2.524	0.100
267.300	9.605	0.100
267.400	6.261	0.100
267.500	-5.872	0.100
267.600	-12.314	0.100
267.700	19.660	0.100
267.800	3.566	0.100
267.900	1.839	0.100
268.000	3.237	0.100
268.100	-1.290	0.100
268.200	4.536	0.100
268.300	6.832	0.100
268.400	6.622	0.100
268.500	8.620	0.100
268.600	-4.689	0.100
268.700	19.762	0.100
268.800	6.066	0.100
268.900	-4.725	0.100
269.000	4.459	0.100
269.100	14.071	0.100
269.200	-4.819	0.100
269.300	7.786	0.100
269.400	-10.956	0.100
269.500	5.843	0.100
269.600	12.218	0.100
269.700	2.192	0.100
269.800	-8.907	0.100
269.900	1.516	0.100
270.000	-13.126	0.100
270.100	-5.063	0.100
270.200	-2.445	0.099
270.300	13.295	0.100
270.400	7.766	0.100
270.500	-12.884	0.100
270.600	-3.129	0.100
270.700	-1.098	0.100
270.800	1.222	0.100
270.900	7.231	0.100
271.000	13.637	0.100
271.100	-8.822	0.100
271.200	8.807	0.100
271.300	4.907	0.100
271.400	1.518	0.100
271.500	16.977	0.100
271.600	-5.333	0.100
271.700	-9.538	0.100
271.800	18.222	0.100
271.900	3.581	0.100
272.000	3.544	0.100
272.100	-2.808	0.100
272.200	-1.140	0.100
272.300	10.450	0.100
272.400	-1.962	0.100
272.500	7.386	0.100
272.600	3.163	0.100
272.700	4.624	0.100
272.800	-6.776	0.100
272.900	-6.491	0.100
273.000	11.873	0.100
273.100	3.090	0.100
273.200	7.297	0.100
273.300	-13.384	0.100
273.400	9.357	0.100
273.500	0.763	0.100
273.600	1.692	0.100
273.700	-4.630	0.100
273.800	5.936	0.100
273.900	0.556	0.100
274.000	-6.541	0.100
274.100	-3.221	0.100
274.200	7.460	0.100
274.300	9.643	0.100
274.400	0.326	0.100
274.500	1.562	0.100
274.600	12.908	0.100
274.700	-0.828	0.100
274.800	-12.803	0.100
274.900	6.745	0.100
275.000	-0.039	0.100
275.100	8.967	0.100
275.200	1.592	0.100
275.300	-7.912	0.100
275.400	12.614	0.100
275.500	2.789	0.100
275.600	-0.536	0.100
275.700	6.542	0.100
275.800	-9.684	0.100
275.900	-1.053	0.100
276.000	0.250	0.100
276.100	-4.881	0.100
276.200	-15.032	0.100
276.300	3.465	0.100
276.400	9.751	0.100
276.500	20.493	0.100
276.600	7.782	0.100
276.700	-12.739	0.100
276.800	6.650	0.100
276.900	7.456	0.100
277.000	-2.593	0.100
277.100	12.465	0.100
277.200	10.356	0.100
277.300	-0.799	0.100
277.400	3.089	0.100
277.500	-2.379	0.100
277.600	-11.173	0.100
277.700	-0.406	0.100
277.800	2.742	0.100
277.900	-8.275	0.100
278.000	4.955	0.100
278.100	12.726	0.100
278.200	5.447	0.100
278.300	-1.701	0.100
278.400	2.945	0.100
278.500	7.057	0.100
278.600	3.044	0.100
278.700	9.900	0.100
278.800	-6.833	0.100
278.900	9.221	0.100
279.000	-11.657	0.100
279.100	4.873	0.100
279.200	9.685	0.100
279.300	4.351	0.100
279.400	6.890	0.100
279.500	5.355	0.100
279.600	-6.633	0.100
279.700	-4.310	0.100
279.800	3.614	0.100
279.900	8.290	0.100
280.000	4.400	0.100
280.100	6.365	0.100
280.200	3.536	0.100
280.300	2.167	0.100
280.400	-0.685	0.100
280.500	9.951	0.100
280.600	-2.712	0.100
280.700	8.100	0.100
280.800	2.756	0.100
280.900	1.458	0.100
281.000	3.804	0.100
281.100	-9.321	0.100
281.200	-5.567	0.100
281.300	6.632	0.100
281.400	7.687	0.100
281.500	8.739	0.100
281.600	-6.294	0.100
281.700	4.601	0.100
281.800	1.204	0.100
281.900	-3.697	0.100
282.000	18.896	0.100
282.100	4.569	0.100
282.200	-3.215	0.100
282.300	15.213	0.100
282.400	-5.094	0.100
282.500	-4.021	0.100
282.600	10.191	0.100
282.700	4.929	0.100
282.800	-1.742	0.100
282.900	5.135	0.100
283.000	3.741	0.100
283.100	-1.316	0.100
283.200	8.933	0.100
283.300	2.321	0.100
283.400	5.068	0.100
283.500	5.685	0.100
283.600	2.166	0.100
283.700	13.936	0.100
283.800	-0.540	0.100
283.900	-11.324	0.100
284.000	7.361	0.100
284.100	12.431	0.100
284.200	16.141	0.100
284.300	-1.637	0.100
284.400	1.574	0.100
284.500	11.035	0.100
284.600	1.092	0.100
284.700	3.958	0.100
284.800	-2.506	0.100
284.900	1.270	0.100
285.000	2.530	0.100
285.100	-2.830	0.100
285.200	-5.290	0.100
285.300	10.547	0.100
285.400	-0.468	0.100
285.500	4.914	0.100
285.600	7.625	0.100
285.700	6.722	0.100
285.800	-21.052	0.100
285.900	5.707	0.100
286.000	-2.335	0.100
286.100	4.705	0.100
286.200	-0.112	0.100
286.300	0.511	0.100
286.400	-7.953	0.100
286.500	4.402	0.100
286.600	5.482	0.100
286.700	3.483	0.100
286.800	9.054	0.100
286.900	0.991	0.100
287.000	1.246	0.100
287.100	2.695	0.100
287.200	5.436	0.100
287.300	-0.549	0.100
287.400	-4.116	0.100
287.500	-0.980	0.100
287.600	13.679	0.100
287.700	11.012	0.100
287.800	2.072	0.100
287.900	-3.055	0.100
288.000	15.248	0.100
288.100	2.573	0.100
288.200	7.229	0.100
288.300	-8.309	0.100
288.400	13.488	0.100
288.500	-1.686	0.100
288.600	7.081	0.100
288.700	2.811	0.100
288.800	-3.579	0.100
288.900	14.390	0.100
289.000	7.498	0.100
289.100	5.813	0.100
289.200	3.409	0.100
289.300	6.383	0.100
289.400	1.728	0.100
289.500	-4.290	0.100
289.600	-6.212	0.100
289.700	8.014	0.100
289.800	-7.855	0.100
289.900	-2.262	0.100
290.000	11.319	0.100
290.100	1.813	0.100
290.200	15.882	0.100
290.300	-16.450	0.100
290.400	8.090	0.100
290.500	-1.201	0.100
290.600	10.052	0.100
290.700	13.286	0.100
290.800	7.060	0.100
290.900	0.869	0.100
291.000	-0.269	0.100
291.100	-0.079	0.100
291.200	0.610	0.100
291.300	7.531	0.100
291.400	-0.882	0.100
291.500	5.979	0.100
291.600	0.352	0.100
291.700	10.084	0.100
291.800	-4.545	0.100
291.900	1.834	0.100
292.000	2.778	0.100
292.100	1.841	0.100
292.200	-9.543	0.100
292.300	12.727	0.100
292.400	11.445	0.100
292.500	-0.611	0.100
292.600	4.162	0.100
292.700	4.522	0.100
292.800	4.658	0.100
292.900	-9.226	0.100
293.000	-3.069	0.100
293.100	-6.774	0.100
293.200	27.642	0.100
293.300	-9.507	0.100
293.400	-1.067	0.100
293.500	7.055	0.100
293.600	5.786	0.100
293.700	0.632	0.100
293.800	0.208	0.099
293.900	8.497	0.100
294.000	-14.147	0.100
294.100	2.254	0.100
294.200	11.573	0.100
294.300	-6.490	0.100
294.400	5.913	0.100
294.500	-5.264	0.100
294.600	12.480	0.100
294.700	-15.747	0.100
294.800	15.821	0.100
294.900	3.222	0.100
295.000	2.389	0.100
295.100	-2.199	0.100
295.200	5.141	0.100
295.300	-6.873	0.100
295.400	-4.203	0.100
295.500	17.998	0.100
295.600	1.339	0.100
295.700	-4.431	0.100
295.800	0.433	0.100
295.900	2.976	0.100
296.000	9.047	0.100
296.100	3.297	0.100
296.200	14.704	0.100
296.300	1.491	0.100
296.400	-4.780	0.100
296.500	11.983	0.100
296.600	-6.554	0.099
296.700	3.873	0.100
296.800	0.853	0.100
296.900	-8.300	0.100
297.000	-0.954	0.100
297.100	10.654	0.100
297.200	-0.779	0.100
297.300	8.606	0.100
297.400	-1.613	0.100
297.500	-8.385	0.100
297.600	-3.752	0.100
297.700	-5.315	0.100
297.800	-4.372	0.100
297.900	11.359	0.100
298.000	5.530	0.100
298.100	4.120	0.100
298.200	1.111	0.100
298.300	-11.690	0.100
298.400	-4.226	0.100
298.500	-2.738	0.100
298.600	6.283	0.100
298.700	-5.949	0.100
298.800	4.543	0.100
298.900	-0.121	0.100
299.000	6.076	0.100
299.100	1.442	0.100
299.200	11.621	0.100
299.300	-9.323	0.100
299.400	0.165	0.100
299.500	6.578	0.100
299.600	4.629	0.100
299.700	7.448	0.100
299.800	0.040	0.100
299.900	1.572	0.100
300.000	3.446	0.100
300.100	5.062	0.100
300.200	-9.477	0.100
300.300	2.236	0.100
300.400	-9.015	0.100
300.500	2.882	0.100
300.600	1.457	0.100
300.700	10.025	0.100
300.800	2.733	0.100
300.900	-9.987	0.100
301.000	13.120	0.100
301.100	9.858	0.100
301.200	10.391	0.100
301.300	0.412	0.100
301.400	1.801	0.100
301.500	-2.814	0.100
301.600	24.682	0.100
301.700	-6.578	0.100
301.800	8.603	0.100
301.900	2.327	0.100
302.000	3.217	0.100
302.100	-1.478	0.100
302.200	-5.636	0.100
302.300	-5.340	0.100
302.400	11.190	0.100
302.500	-0.534	0.100
302.600	-7.169	0.100
302.700	5.477	0.100
302.800	11.341	0.100
302.900	13.920	0.100
303.000	9.306	0.100
303.100	-7.940	0.100
303.200	-9.481	0.100
303.300	3.544	0.100
303.400	-16.753	0.100
303.500	1.285	0.100
303.600	8.827	0.100
303.700	14.534	0.100
303.800	7.973	0.100
303.900	4.291	0.100
304.000	8.255	0.100
304.100	0.658	0.100
304.200	8.699	0.100
304.300	5.372	0.099
304.400	3.660	0.100
304.500	-11.556	0.100
304.600	4.839	0.100
304.700	-0.856	0.100
304.800	18.384	0.100
304.900	-3.784	0.100
305.000	30.107	0.099
305.100	8.749	0.100
305.200	-18.904	0.100
305.300	-6.277	0.100
305.400	-3.254	0.100
305.500	-3.699	0.100
305.600	10.223	0.100
305.700	6.421	0.099
305.800	1.012	0.100
305.900	7.384	0.100
306.000	-3.766	0.100
306.100	8.738	0.100
306.200	9.973	0.100
306.300	-1.936	0.100
306.400	4.934	0.100
306.500	4.681	0.100
306.600	6.122	0.100
306.700	-1.614	0.100
306.800	-0.503	0.100
306.900	1.521	0.099
307.000	-6.165	0.099
307.100	8.206	0.100
307.200	7.375	0.100
307.300	-10.295	0.100
307.400	0.140	0.100
307.500	6.915	0.100
307.600	1.989	0.100
307.700	9.104	0.100
307.800	0.991	0.100
307.900	18.643	0.100
308.000	-4.688	0.099
308.100	2.486	0.100
308.200	6.007	0.100
308.300	9.273	0.100
308.400	-6.667	0.100
308.500	-4.984	0.100
308.600	10.242	0.100
308.700	2.773	0.100
308.800	-9.227	0.100
308.900	6.234	0.100
309.000	-1.612	0.099
309.100	0.694	0.100
309.200	-3.130	0.100
309.300	-0.448	0.099
309.400	3.539	0.099
309.500	10.153	0.100
309.600	5.749	0.100
309.700	6.704	0.100
309.800	4.880	0.100
309.900	-2.019	0.100
310.000	20.578	0.100
310.100	1.286	0.100
310.200	0.509	0.100
310.300	-13.916	0.100
310.400	13.871	0.100
310.500	9.416	0.100
310.600	6.699	0.100
310.700	2.625	0.100
310.800	-3.204	0.100
310.900	1.023	0.100
311.000	3.075	0.100
311.100	5.297	0.100
311.200	-1.690	0.100
311.300	3.638	0.100
311.400	15.040	0.100
311.500	-4.464	0.099
311.600	9.100	0.100
311.700	-15.420	0.099
311.800	3.841	0.100
311.900	1.158	0.100
312.000	7.446	0.100
312.100	3.719	0.099
312.200	-0.816	0.100
312.300	2.215	0.100
312.400	4.448	0.100
312.500	-0.128	0.100
312.600	-4.268	0.100
312.700	-6.917	0.100
312.800	13.312	0.100
312.900	6.805	0.099
313.000	3.337	0.100
313.100	9.984	0.100
313.200	16.104	0.100
313.300	-1.293	0.100
313.400	2.318	0.099
313.500	5.132	0.100
313.600	8.091	0.100
313.700	1.277	0.100
313.800	3.395	0.100
313.900	-0.522	0.100
314.000	3.486	0.100
314.100	8.869	0.100
314.200	-2.221	0.100
314.300	0.674	0.100
314.400	2.141	0.099
314.500	6.796	0.100
314.600	-4.415	0.100
314.700	-0.222	0.100
314.800	6.268	0.100
314.900	8.300	0.100
315.000	5.937	0.100
315.100	0.162	0.100
315.200	-5.767	0.100
315.300	-1.488	0.099
315.400	11.375	0.100
315.500	-0.805	0.100
315.600	-0.129	0.100
315.700	1.348	0.100
315.800	8.155	0.100
315.900	-5.597	0.100
316.000	6.657	0.100
316.100	2.108	0.099
316.200	7.501	0.100
316.300	3.367	0.100
316.400	13.246	0.100
316.500	-13.510	0.099
316.600	6.410	0.100
316.700	3.684	0.100
316.800	10.072	0.100
316.900	10.146	0.100
317.000	-11.892	0.100
317.100	7.946	0.099
317.200	12.520	0.100
317.300	0.177	0.100
317.400	11.334	0.100
317.500	0.987	0.100
317.600	1.881	0.099
317.700	-0.517	0.099
317.800	6.590	0.100
317.900	-0.032	0.100
318.000	4.764	0.100
318.100	-0.733	0.100
318.200	2.744	0.100
318.300	-9.584	0.099
318.400	-19.405	0.100
318.500	16.803	0.100
318.600	5.955	0.100
318.700	11.995	0.100
318.800	12.616	0.100
318.900	-5.073	0.100
319.000	6.752	0.100
319.100	-4.625	0.100
319.200	2.740	0.100
319.300	-1.885	0.100
319.400	4.084	0.100
319.500	-4.101	0.100
319.600	6.962	0.100
319.700	-3.118	0.100
319.800	11.444	0.100
319.900	-0.523	0.100
320.000	7.694	0.100
320.100	5.453	0.100
320.200	5.220	0.099
320.300	4.606	0.100
320.400	-2.070	0.100
320.500	3.079	0.100
320.600	1.538	0.100
320.700	-0.692	0.100
320.800	7.508	0.100
320.900	1.404	0.100
321.000	-4.595	0.100
321.100	-1.318	0.100
321.200	20.186	0.100
321.300	2.550	0.100
321.400	1.820	0.100
321.500	16.492	0.100
321.600	4.767	0.100
321.700	-4.075	0.100
321.800	13.448	0.099
321.900	5.016	0.100
322.000	5.490	0.100
322.100	-4.631	0.100
322.200	-10.084	0.100
322.300	8.696	0.099
322.400	8.949	0.100
322.500	-2.162	0.100
322.600	4.364	0.100
322.700	6.792	0.100
322.800	11.929	0.100
322.900	8.239	0.100
323.000	4.356	0.100
323.100	1.630	0.100
323.200	0.084	0.100
323.300	-8.591	0.100
323.400	17.489	0.100
323.500	6.721	0.100
323.600	0.842	0.100
323.700	6.618	0.100
323.800	14.762	0.099
323.900	-8.083	0.100
324.000	0.211	0.100
324.100	3.795	0.100
324.200	2.731	0.100
324.300	-2.173	0.100
324.400	-15.068	0.100
324.500	3.753	0.100
324.600	-8.890	0.100
324.700	-1.227	0.100
324.800	2.923	0.100
324.900	11.495	0.100
325.000	2.101	0.100
325.100	5.374	0.100
325.200	3.566	0.100
325.300	5.090	0.100
325.400	12.879	0.100
325.500	-4.379	0.100
325.600	-3.949	0.100
325.700	-0.727	0.100
325.800	-11.037	0.100
325.900	8.070	0.100
326.000	8.334	0.100
326.100	3.694	0.100
326.200	-2.849	0.100
326.300	1.874	0.099
326.400	-0.060	0.100
326.500	4.536	0.100
326.600	-6.405	0.100
326.700	-1.914	0.100
326.800	3.031	0.100
326.900	-5.220	0.100
327.000	8.297	0.100
327.100	-4.852	0.100
327.200	3.908	0.100
327.300	4.056	0.100
327.400	-8.711	0.100
327.500	14.525	0.099
327.600	7.946	0.100
327.700	6.621	0.100
327.800	-16.621	0.099
327.900	6.382	0.099
328.000	5.222	0.100
328.100	11.446	0.100
328.200	-0.381	0.100
328.300	2.387	0.100
328.400	5.665	0.100
328.500	-4.068	0.100
328.600	3.030	0.100
328.700	-1.307	0.100
328.800	2.909	0.100
328.900	-0.489	0.099
329.000	-0.116	0.100
329.100	-0.359	0.100
329.200	-14.496	0.100
329.300	-0.017	0.100
329.400	24.530	0.099
329.500	11.880	0.099
329.600	17.529	0.100
329.700	-2.126	0.100
329.800	-3.740	0.099
329.900	-3.282	0.099
330.000	12.415	0.099
330.100	18.187	0.099
330.200	-1.326	0.100
330.300	20.211	0.100
330.400	-9.874	0.100
330.500	13.075	0.100
330.600	9.785	0.100
330.700	1.454	0.100
330.800	-0.234	0.100
330.900	13.086	0.100
331.000	0.595	0.100
331.100	14.235	0.100
331.200	10.950	0.099
331.300	4.113	0.099
331.400	7.152	0.100
331.500	-1.453	0.100
331.600	13.117	0.100
331.700	-7.507	0.100
331.800	1.871	0.100
331.900	4.043	0.100
332.000	11.191	0.100
332.100	9.138	0.100
332.200	0.305	0.100
332.300	-6.857	0.100
332.400	11.274	0.100
332.500	11.883	0.100
332.600	11.428	0.100
332.700	1.084	0.099
332.800	-2.855	0.100
332.900	1.073	0.100
333.000	14.924	0.099
333.100	-2.260	0.100
333.200	2.044	0.100
333.300	13.822	0.100
333.400	6.729	0.100
333.500	-0.548	0.100
333.600	8.006	0.100
333.700	0.082	0.100
333.800	3.235	0.099
333.900	-10.352	0.100
334.000	11.193	0.100
334.100	7.312	0.100
334.200	0.653	0.100
334.300	17.730	0.100
334.400	4.538	0.100
334.500	14.075	0.100
334.600	-2.622	0.100
334.700	0.501	0.100
334.800	16.127	0.100
334.900	7.098	0.100
335.000	1.744	0.100
335.100	5.197	0.100
335.200	12.082	0.100
335.300	-9.372	0.100
335.400	6.783	0.100
335.500	-1.346	0.100
335.600	3.840	0.100
335.700	0.421	0.100
335.800	-2.820	0.100
335.900	20.728	0.100
336.000	-11.165	0.099
336.100	4.891	0.100
336.200	-3.693	0.100
336.300	1.616	0.100
336.400	5.764	0.100
336.500	15.558	0.100
336.600	4.304	0.100
336.700	-2.223	0.100
336.800	3.400	0.100
336.900	9.782	0.099
337.000	4.495	0.099
337.100	13.422	0.100
337.200	0.714	0.100
337.300	6.343	0.100
337.400	3.600	0.100
337.500	0.103	0.099
337.600	6.456	0.100
337.700	10.414	0.100
337.800	4.958	0.100
337.900	3.015	0.100
338.000	9.892	0.100
338.100	-8.455	0.100
338.200	1.896	0.100
338.300	4.406	0.100
338.400	6.211	0.100
338.500	-6.793	0.099
338.600	4.088	0.099
338.700	3.562	0.100
338.800	15.073	0.100
338.900	7.697	0.100
339.000	4.203	0.100
339.100	12.273	0.100
339.200	-0.699	0.100
339.300	8.608	0.100
339.400	8.778	0.100
339.500	10.122	0.100
339.600	20.753	0.100
339.700	0.002	0.100
339.800	4.507	0.100
339.900	14.871	0.100
340.000	6.522	0.100
340.100	10.571	0.100
340.200	-10.567	0.100
340.300	22.230	0.100
340.400	-1.059	0.100
340.500	3.088	0.100
340.600	-3.908	0.100
340.700	11.626	0.100
340.800	2.968	0.100
340.900	10.149	0.100
341.000	3.502	0.100
341.100	-2.063	0.100
341.200	0.589	0.100
341.300	0.717	0.100
341.400	-1.988	0.100
341.500	4.010	0.100
341.600	-0.360	0.099
341.700	19.803	0.100
341.800	9.760	0.100
341.900	-9.067	0.100
342.000	-3.207	0.099
342.100	5.750	0.100
342.200	14.733	0.099
342.300	-0.901	0.100
342.400	-2.278	0.100
342.500	4.588	0.100
342.600	-2.745	0.100
342.700	10.483	0.100
342.800	3.670	0.100
342.900	3.388	0.100
343.000	2.076	0.100
343.100	20.267	0.100
343.200	0.201	0.100
343.300	1.186	0.100
343.400	-1.947	0.100
343.500	17.398	0.100
343.600	11.954	0.100
343.700	0.299	0.100
343.800	-3.086	0.100
343.900	3.745	0.100
344.000	14.286	0.100
344.100	2.348	0.100
344.200	-1.283	0.100
344.300	11.175	0.100
344.400	0.255	0.100
344.500	10.680	0.100
344.600	0.680	0.100
344.700	6.366	0.100
344.800	5.718	0.100
344.900	-9.227	0.100
345.000	-2.426	0.100
345.100	3.575	0.100
345.200	8.826	0.100
345.300	4.366	0.100
345.400	9.781	0.100
345.500	6.378	0.100
345.600	5.377	0.100
345.700	2.851	0.100
345.800	-2.701	0.100
345.900	3.916	0.100
346.000	5.130	0.100
346.100	-2.700	0.100
346.200	2.100	0.100
346.300	10.911	0.100
346.400	0.208	0.100
346.500	-2.002	0.100
346.600	-3.018	0.100
346.700	6.826	0.100
346.800	7.960	0.100
346.900	3.258	0.100
347.000	1.417	0.100
347.100	12.023	0.100
347.200	0.424	0.100
347.300	5.048	0.100
347.400	3.297	0.100
347.500	-3.981	0.100
347.600	0.216	0.100
347.700	-7.954	0.100
347.800	22.258	0.100
347.900	4.416	0.100
348.000	4.049	0.100
348.100	10.006	0.100
348.200	-2.609	0.100
348.300	12.769	0.100
348.400	4.027	0.100
348.500	-2.039	0.100
348.600	5.858	0.100
348.700	10.260	0.100
348.800	5.365	0.100
348.900	8.604	0.100
349.000	4.111	0.100
349.100	-1.903	0.100
349.200	14.995	0.100
349.300	15.218	0.100
349.400	-0.036	0.100
349.500	1.370	0.100
349.600	16.242	0.100
349.700	6.496	0.100
349.800	-12.721	0.100
349.900	6.261	0.100
350.000	2.043	0.100
350.100	-7.178	0.099
350.200	8.857	0.100
350.300	10.343	0.100
350.400	-9.872	0.100
350.500	12.895	0.100
350.600	10.168	0.100
350.700	-13.235	0.100
350.800	-0.909	0.100
350.900	7.529	0.100
351.000	3.668	0.100
351.100	0.775	0.100
351.200	5.861	0.100
351.300	12.479	0.100
351.400	-1.313	0.100
351.500	7.924	0.100
351.600	5.375	0.100
351.700	2.754	0.100
351.800	6.876	0.100
351.900	12.143	0.100
352.000	6.640	0.100
352.100	2.103	0.100
352.200	5.983	0.100
352.300	1.993	0.100
352.400	-4.928	0.100
352.500	-4.318	0.100
352.600	11.539	0.100
352.700	0.718	0.100
352.800	4.434	0.100
352.900	4.808	0.100
353.000	13.399	0.100
353.100	6.428	0.100
353.200	-1.202	0.100
353.300	5.186	0.100
353.400	12.753	0.100
353.500	5.033	0.100
353.600	4.830	0.100
353.700	9.784	0.100
353.800	-3.350	0.100
353.900	7.216	0.100
354.000	2.338	0.100
354.100	-0.741	0.100
354.200	4.405	0.100
354.300	21.125	0.100
354.400	-3.293	0.100
354.500	-3.377	0.100
354.600	11.585	0.100
354.700	8.506	0.100
354.800	-5.970	0.100
354.900	3.692	0.100
355.000	-4.903	0.100
355.100	11.394	0.100
355.200	0.577	0.100
355.300	3.588	0.100
355.400	-7.075	0.100
355.500	8.440	0.100
355.600	-6.128	0.100
355.700	7.220	0.100
355.800	-6.806	0.100
355.900	6.560	0.100
356.000	5.574	0.100
356.100	-5.416	0.100
356.200	16.243	0.100
356.300	11.659	0.100
356.400	0.481	0.100
356.500	1.049	0.100
356.600	5.305	0.100
356.700	13.409	0.100
356.800	7.020	0.100
356.900	-1.613	0.100
357.000	9.448	0.100
357.100	-0.147	0.100
357.200	4.399	0.100
357.300	12.681	0.100
357.400	-4.268	0.100
357.500	4.211	0.100
357.600	-1.653	0.100
357.700	-2.307	0.100
357.800	0.194	0.100
357.900	1.445	0.100
358.000	-6.023	0.100
358.100	3.885	0.100
358.200	13.279	0.100
358.300	0.559	0.100
358.400	6.677	0.100
358.500	0.047	0.100
358.600	15.421	0.100
358.700	-20.170	0.100
358.800	5.838	0.100
358.900	7.374	0.100
359.000	0.126	0.100
359.100	3.540	0.100
359.200	4.888	0.100
359.300	5.953	0.100
359.400	-1.450	0.100
359.500	6.607	0.100
359.600	-1.259	0.100
359.700	8.745	0.100
359.800	-9.552	0.100
359.900	15.014	0.100
360.000	1.293	0.100
360.100	2.432	0.100
360.200	4.239	0.100
360.300	3.120	0.099
360.400	22.991	0.100
360.500	11.324	0.100
360.600	-8.455	0.099
360.700	-1.236	0.100
360.800	1.233	0.100
360.900	6.725	0.100
361.000	6.877	0.100
361.100	7.872	0.100
361.200	0.135	0.100
361.300	3.457	0.100
361.400	7.385	0.100
361.500	-6.133	0.100
361.600	7.691	0.100
361.700	0.055	0.100
361.800	1.230	0.100
361.900	0.577	0.100
362.000	7.660	0.100
362.100	0.844	0.100
362.200	9.190	0.100
362.300	-5.066	0.100
362.400	0.942	0.099
362.500	3.820	0.100
362.600	9.663	0.100
362.700	6.003	0.100
362.800	13.750	0.100
362.900	-11.861	0.100
363.000	6.500	0.100
363.100	2.571	0.100
363.200	0.157	0.100
363.300	4.987	0.100
363.400	0.819	0.100
363.500	2.190	0.100
363.600	-3.508	0.100
363.700	15.246	0.100
363.800	7.019	0.100
363.900	-0.398	0.100
364.000	6.763	0.100
364.100	1.423	0.100
364.200	3.552	0.100
364.300	0.225	0.100
364.400	12.903	0.100
364.500	4.244	0.100
364.600	5.995	0.100
364.700	7.717	0.100
364.800	1.123	0.100
364.900	10.227	0.100
365.000	6.224	0.100
365.100	4.210	0.100
365.200	7.531	0.100
365.300	7.799	0.100
365.400	6.160	0.100
365.500	3.857	0.100
365.600	6.062	0.100
365.700	8.761	0.100
365.800	3.531	0.099
365.900	16.537	0.100
366.000	0.403	0.100
366.100	-8.710	0.100
366.200	0.904	0.100
366.300	8.414	0.100
366.400	0.028	0.100
366.500	1.685	0.099
366.600	7.566	0.100
366.700	-5.215	0.099
366.800	10.015	0.100
366.900	-7.346	0.100
367.000	-2.605	0.100
367.100	2.341	0.100
367.200	-1.059	0.100
367.300	10.860	0.100
367.400	15.457	0.099
367.500	4.438	0.099
367.600	3.042	0.100
367.700	4.091	0.100
367.800	11.134	0.099
367.900	11.799	0.100
368.000	3.867	0.100
368.100	10.412	0.100
368.200	0.650	0.100
368.300	3.699	0.099
368.400	1.152	0.100
368.500	-5.985	0.100
368.600	1.761	0.100
368.700	20.636	0.100
368.800	8.673	0.100
368.900	-1.696	0.100
369.000	2.514	0.100
369.100	4.917	0.100
369.200	5.556	0.100
369.300	8.991	0.100
369.400	0.721	0.100
369.500	-15.100	0.100
369.600	20.932	0.100
369.700	7.083	0.099
369.800	-12.203	0.100
369.900	-6.204	0.100
370.000	6.322	0.100
370.100	2.452	0.100
370.200	3.762	0.100
370.300	0.891	0.100
370.400	8.161	0.100
370.500	-12.566	0.100
370.600	4.373	0.099
370.700	17.051	0.100
370.800	7.637	0.100
370.900	-11.360	0.100
371.000	10.438	0.100
371.100	7.279	0.100
371.200	12.403	0.099
371.300	4.850	0.100
371.400	14.745	0.100
371.500	-3.910	0.100
371.600	8.286	0.100
371.700	-1.839	0.100
371.800	0.983	0.100
371.900	10.054	0.100
372.000	3.895	0.100
372.100	0.632	0.100
372.200	-6.398	0.100
372.300	11.168	0.100
372.400	5.140	0.100
372.500	8.103	0.100
372.600	9.916	0.100
372.700	2.141	0.100
372.800	2.625	0.100
372.900	6.065	0.100
373.000	-1.988	0.099
373.100	-5.137	0.100
373.200	4.343	0.100
373.300	7.160	0.100
373.400	9.236	0.099
373.500	9.316	0.100
373.600	0.729	0.099
373.700	-1.591	0.099
373.800	-5.757	0.099
373.900	15.213	0.100
374.000	7.184	0.100
374.100	6.959	0.100
374.200	-4.155	0.100
374.300	4.199	0.100
374.400	1.634	0.100
374.500	4.018	0.100
374.600	-2.770	0.100
374.700	-8.415	0.099
374.800	11.434	0.100
374.900	-2.599	0.100
375.000	3.262	0.100
375.100	-5.505	0.100
375.200	-1.619	0.100
375.300	-10.055	0.100
375.400	1.139	0.100
375.500	6.018	0.100
375.600	9.418	0.100
375.700	19.204	0.100
375.800	14.070	0.099
375.900	0.438	0.099
376.000	-1.141	0.100
376.100	-3.682	0.100
376.200	3.659	0.100
376.300	6.440	0.100
376.400	-0.977	0.100
376.500	-0.126	0.100
376.600	4.347	0.100
376.700	2.204	0.100
376.800	-29.321	0.099
376.900	9.023	0.100
377.000	-0.552	0.100
377.100	5.135	0.100
377.200	7.441	0.100
377.300	-14.826	0.100
377.400	18.047	0.100
377.500	-6.066	0.100
377.600	-8.276	0.100
377.700	18.845	0.099
377.800	7.939	0.100
377.900	0.468	0.100
378.000	4.772	0.100
378.100	17.421	0.100
378.200	10.108	0.100
378.300	4.624	0.100
378.400	-2.773	0.100
378.500	9.280	0.100
378.600	-6.091	0.100
378.700	0.417	0.100
378.800	3.827	0.100
378.900	16.260	0.100
379.000	7.099	0.100
379.100	7.581	0.099
379.200	-7.926	0.100
379.300	-2.303	0.100
379.400	3.432	0.099
379.500	3.307	0.100
379.600	-1.798	0.099
379.700	16.599	0.100
379.800	-8.124	0.100
379.900	-10.985	0.100
380.000	-2.950	0.099
380.100	13.526	0.100
380.200	-5.996	0.099
380.300	-2.829	0.099
380.400	16.292	0.100
380.500	10.290	0.100
380.600	17.239	0.099
380.700	10.276	0.100
380.800	5.096	0.100
380.900	-11.474	0.100
381.000	-10.631	0.100
381.100	11.400	0.099
381.200	11.230	0.100
381.300	13.679	0.100
381.400	3.959	0.099
381.500	4.083	0.100
381.600	2.565	0.099
381.700	7.300	0.100
381.800	-0.620	0.100
381.900	5.363	0.099
382.000	-4.095	0.100
382.100	3.610	0.100
382.200	2.556	0.100
382.300	-5.479	0.099
382.400	0.697	0.100
382.500	20.498	0.099
382.600	4.392	0.099
382.700	6.822	0.100
382.800	0.387	0.100
382.900	-1.125	0.100
383.000	2.709	0.100
383.100	2.102	0.100
383.200	-11.261	0.100
383.300	21.264	0.100
383.400	0.276	0.100
383.500	9.459	0.100
383.600	12.304	0.100
383.700	3.218	0.100
383.800	-2.768	0.100
383.900	-10.008	0.100
384.000	2.550	0.100
384.100	3.815	0.100
384.200	3.052	0.100
384.300	3.157	0.099
384.400	-0.158	0.100
384.500	16.931	0.100
384.600	7.422	0.099
384.700	5.611	0.100
384.800	6.564	0.100
384.900	2.288	0.099
385.000	-2.105	0.099
385.100	5.156	0.100
385.200	-2.956	0.099
385.300	0.121	0.099
385.400	-0.554	0.099
385.500	0.486	0.099
385.600	11.498	0.099
385.700	2.607	0.099
385.800	7.672	0.099
385.900	11.335	0.100
386.000	2.431	0.100
386.100	-7.905	0.099
386.200	16.143	0.100
386.300	5.958	0.100
386.400	4.023	0.099
386.500	4.510	0.099
386.600	-1.565	0.100
386.700	-3.099	0.100
386.800	-3.337	0.100
386.900	7.269	0.100
387.000	-0.138	0.099
387.100	-9.514	0.099
387.200	-5.079	0.099
387.300	-1.710	0.099
387.400	10.640	0.100
387.500	8.653	0.100
387.600	0.785	0.100
387.700	-0.728	0.099
387.800	-0.553	0.100
387.900	-11.985	0.099
388.000	5.075	0.099
388.100	-4.921	0.099
388.200	6.823	0.099
388.300	0.829	0.099
388.400	-7.692	0.099
388.500	5.227	0.099
388.600	6.891	0.100
388.700	-4.774	0.099
388.800	6.433	0.099
388.900	4.777	0.099
389.000	9.818	0.100
389.100	10.021	0.100
389.200	-4.620	0.100
389.300	0.268	0.100
389.400	-10.029	0.100
389.500	-12.971	0.100
389.600	21.727	0.100
389.700	-3.792	0.100
389.800	-8.119	0.099
389.900	13.435	0.099
390.000	-0.004	0.100
390.100	-1.952	0.100
390.200	0.260	0.099
390.300	6.905	0.099
390.400	7.497	0.099
390.500	-1.637	0.100
390.600	-2.087	0.099
390.700	0.173	0.100
390.800	-3.817	0.099
390.900	2.793	0.100
391.000	-0.709	0.099
391.100	0.943	0.099
391.200	6.712	0.099
391.300	5.004	0.099
391.400	1.805	0.099
391.500	6.317	0.099
391.600	-0.724	0.100
391.700	9.647	0.100
391.800	-12.202	0.100
391.900	-4.143	0.100
392.000	13.973	0.099
392.100	-1.512	0.099
392.200	2.631	0.100
392.300	-12.802	0.100
392.400	-4.167	0.100
392.500	10.565	0.099
392.600	-5.603	0.100
392.700	-8.766	0.100
392.800	6.502	0.099
392.900	-4.324	0.099
393.000	2.257	0.099
393.100	-3.814	0.099
393.200	18.673	0.099
393.300	4.460	0.099
393.400	-10.237	0.099
393.500	10.991	0.099
393.600	2.308	0.100
393.700	2.512	0.100
393.800	-7.104	0.100
393.900	8.714	0.099
394.000	-2.137	0.099
394.100	-1.374	0.099
394.200	8.189	0.099
394.300	6.254	0.100
394.400	8.326	0.099
394.500	5.267	0.100
394.600	3.660	0.099
394.700	-7.164	0.099
394.800	-4.689	0.100
394.900	-2.698	0.099
395.000	-11.763	0.100
395.100	6.054	0.100
395.200	-6.570	0.100
395.300	-9.212	0.099
395.400	4.885	0.099
395.500	-2.066	0.099
395.600	9.905	0.099
395.700	5.945	0.099
395.800	10.581	0.100
395.900	1.356	0.099
396.000	-2.544	0.099
396.100	-4.542	0.099
396.200	-10.495	0.100
396.300	-2.768	0.099
396.400	-1.522	0.100
396.500	-6.522	0.099
396.600	7.340	0.100
396.700	-2.613	0.100
396.800	0.995	0.100
396.900	4.183	0.099
397.000	5.618	0.099
397.100	4.650	0.100
397.200	-4.726	0.099
397.300	-7.816	0.099
397.400	-3.535	0.099
397.500	-3.611	0.099
397.600	7.194	0.099
397.700	4.522	0.100
397.800	2.594	0.100
397.900	0.449	0.100
398.000	-6.228	0.099
398.100	2.886	0.099
398.200	8.885	0.100
398.300	-8.087	0.100
398.400	6.937	0.100
398.500	-5.042	0.099
398.600	6.055	0.099
398.700	3.538	0.100
398.800	6.680	0.099
398.900	2.418	0.100
399.000	-2.592	0.099
399.100	-12.581	0.099
399.200	-5.594	0.099
399.300	-10.331	0.100
399.400	0.537	0.099
399.500	-3.098	0.099
399.600	-6.939	0.099
399.700	1.938	0.099
399.800	6.970	0.099
399.900	3.981	0.100
400.000	7.439	0.099
400.100	2.266	0.099
400.200	0.103	0.099
400.300	-5.105	0.099
400.400	-19.952	0.099
400.500	1.672	0.100
400.600	-1.684	0.099
400.700	2.755	0.099
400.800	-2.497	0.100
400.900	1.415	0.099
401.000	12.455	0.100
401.100	-1.917	0.100
401.200	10.158	0.099
401.300	13.192	0.099
401.400	-4.342	0.099
401.500	8.761	0.099
401.600	-9.332	0.099
401.700	-7.899	0.099
401.800	7.441	0.099
401.900	-7.964	0.099
402.000	12.781	0.099
402.100	4.685	0.100
402.200	-8.048	0.099
402.300	1.370	0.099
402.400	7.267	0.099
402.500	2.226	0.099
402.600	2.256	0.099
402.700	3.956	0.099
402.800	-18.364	0.099
402.900	-12.540	0.099
403.000	9.392	0.099
403.100	13.687	0.099
403.200	1.386	0.099
403.300	9.140	0.100
403.400	-0.591	0.099
403.500	-3.052	0.100
403.600	0.480	0.099
403.700	15.056	0.099
403.800	9.617	0.100
403.900	-6.957	0.099
404.000	-1.042	0.099
404.100	11.617	0.099
404.200	-8.129	0.099
404.300	13.709	0.099
404.400	6.232	0.099
404.500	-20.674	0.099
404.600	10.297	0.099
404.700	-0.151	0.099
404.800	11.059	0.099
404.900	-6.206	0.099
405.000	3.450	0.099
405.100	0.087	0.099
405.200	4.157	0.099
405.300	-6.747	0.099
405.400	6.947	0.099
405.500	-0.889	0.099
405.600	-6.155	0.099
405.700	15.124	0.100
405.800	-5.200	0.100
405.900	-11.906	0.099
406.000	-0.026	0.099
406.100	6.677	0.099
406.200	0.624	0.099
406.300	-0.279	0.100
406.400	-8.390	0.099
406.500	2.022	0.099
406.600	-5.070	0.099
406.700	-0.251	0.099
406.800	3.283	0.099
406.900	-12.280	0.099
407.000	7.199	0.100
407.100	15.647	0.099
407.200	4.074	0.099
407.300	-7.909	0.099
407.400	5.726	0.099
407.500	-3.422	0.099
407.600	4.807	0.099
407.700	-4.976	0.099
407.800	-5.614	0.099
407.900	3.285	0.099
408.000	0.606	0.099
408.100	1.659	0.099
408.200	3.659	0.099
408.300	20.829	0.099
408.400	-7.254	0.099
408.500	3.074	0.099
408.600	11.468	0.099
408.700	-7.365	0.100
408.800	18.554	0.099
408.900	2.518	0.100
409.000	2.821	0.099
409.100	-1.995	0.099
409.200	-0.201	0.099
409.300	-8.648	0.100
409.400	7.895	0.099
409.500	-9.954	0.099
409.600	1.625	0.099
409.700	3.598	0.099
409.800	0.370	0.099
409.900	12.959	0.099
410.000	7.999	0.099
410.100	-6.449	0.099
410.200	-5.886	0.099
410.300	14.427	0.099
410.400	11.699	0.099
410.500	-6.430	0.099
410.600	-2.098	0.099
410.700	-0.756	0.099
410.800	5.187	0.099
410.900	-3.138	0.099
411.000	-11.948	0.099
411.100	1.014	0.099
411.200	7.088	0.099
411.300	-9.528	0.099
411.400	2.628	0.099
411.500	-5.129	0.099
411.600	3.578	0.100
411.700	12.367	0.099
411.800	-3.734	0.099
411.900	1.182	0.099
412.000	11.519	0.100
412.100	-11.362	0.100
412.200	-7.485	0.099
412.300	6.567	0.100
412.400	-1.723	0.099
412.500	2.747	0.099
412.600	-6.378	0.099
412.700	22.517	0.100
412.800	6.628	0.099
412.900	5.874	0.099
413.000	-0.862	0.099
413.100	0.525	0.099
413.200	8.545	0.099
413.300	-2.350	0.099
413.400	9.584	0.100
413.500	-1.984	0.100
413.600	18.707	0.099
413.700	0.969	0.099
413.800	-3.656	0.099
413.900	17.554	0.099
414.000	6.070	0.099
414.100	-1.990	0.099
414.200	15.764	0.099
414.300	-16.983	0.099
414.400	2.873	0.099
414.500	-8.513	0.099
414.600	3.482	0.099
414.700	8.977	0.099
414.800	3.674	0.099
414.900	7.741	0.099
415.000	7.996	0.100
415.100	-3.593	0.100
415.200	5.720	0.099
415.300	0.414	0.099
415.400	-2.139	0.099
415.500	11.095	0.099
415.600	-3.447	0.099
415.700	-4.440	0.099
415.800	9.916	0.099
415.900	3.299	0.099
416.000	0.467	0.099
416.100	-11.201	0.099
416.200	4.565	0.099
416.300	12.195	0.100
416.400	0.733	0.099
416.500	1.903	0.099
416.600	5.464	0.099
416.700	8.687	0.099
416.800	-1.503	0.099
416.900	-7.984	0.099
417.000	11.377	0.099
417.100	1.993	0.099
417.200	4.715	0.099
417.300	3.619	0.099
417.400	10.386	0.099
417.500	-11.409	0.099
417.600	11.119	0.099
417.700	12.032	0.099
417.800	7.600	0.099
417.900	11.626	0.099
418.000	-10.732	0.099
418.100	16.298	0.099
418.200	5.208	0.099
418.300	6.490	0.099
418.400	-5.654	0.100
418.500	6.265	0.099
418.600	7.870	0.100
418.700	-0.870	0.099
418.800	5.473	0.099
418.900	11.671	0.099
419.000	0.122	0.100
419.100	4.118	0.099
419.200	1.811	0.099
419.300	6.815	0.099
419.400	-14.619	0.099
419.500	17.049	0.099
419.600	-3.191	0.099
419.700	-1.153	0.099
419.800	-6.997	0.099
419.900	-3.382	0.099
420.000	10.867	0.099
420.100	5.425	0.099
420.200	1.019	0.099
420.300	-11.526	0.099
420.400	10.687	0.099
420.500	-3.180	0.099
420.600	5.975	0.099
420.700	-10.222	0.099
420.800	19.279	0.099
420.900	-0.764	0.099
421.000	5.875	0.099
421.100	-1.210	0.099
421.200	9.920	0.099
421.300	-4.700	0.099
421.400	2.921	0.099
421.500	0.674	0.099
421.600	3.607	0.099
421.700	-14.237	0.099
421.800	7.487	0.099
421.900	0.480	0.099
422.000	-5.522	0.099
422.100	12.284	0.099
422.200	12.025	0.099
422.300	-10.885	0.099
422.400	6.017	0.099
422.500	-5.048	0.099
422.600	11.060	0.099
422.700	6.985	0.099
422.800	1.820	0.099
422.900	10.054	0.099
423.000	-11.118	0.099
423.100	12.470	0.099
423.200	5.978	0.099
423.300	5.400	0.099
423.400	-3.330	0.099
423.500	-5.367	0.099
423.600	-8.219	0.099
423.700	17.845	0.099
423.800	-1.032	0.100
423.900	-1.065	0.099
424.000	0.070	0.099
424.100	3.065	0.099
424.200	7.226	0.099
424.300	-13.399	0.099
424.400	5.246	0.099
424.500	-3.237	0.099
424.600	4.126	0.099
424.700	0.970	0.099
424.800	2.631	0.099
424.900	3.974	0.099
425.000	11.763	0.099
425.100	-5.441	0.100
425.200	12.294	0.099
425.300	-0.100	0.100
425.400	-2.074	0.100
425.500	-0.704	0.099
425.600	7.222	0.099
425.700	12.695	0.099
425.800	-1.042	0.100
425.900	0.288	0.099
426.000	2.140	0.099
426.100	14.783	0.099
426.200	3.499	0.100
426.300	0.875	0.099
426.400	-3.198	0.099
426.500	-2.879	0.099
426.600	4.509	0.099
426.700	-12.392	0.099
426.800	9.245	0.099
426.900	7.348	0.099
427.000	-0.460	0.099
427.100	-2.309	0.099
427.200	0.642	0.099
427.300	0.893	0.099
427.400	1.968	0.099
427.500	5.345	0.099
427.600	12.335	0.099
427.700	-10.452	0.099
427.800	14.390	0.099
427.900	2.678	0.099
428.000	-1.807	0.099
428.100	1.265	0.100
428.200	7.915	0.099
428.300	12.857	0.099
428.400	0.514	0.099
428.500	-3.418	0.099
428.600	2.274	0.099
428.700	10.838	0.099
428.800	-4.276	0.099
428.900	4.392	0.099
429.000	6.107	0.099
429.100	1.911	0.099
429.200	6.898	0.099
429.300	2.897	0.099
429.400	14.738	0.099
429.500	-9.594	0.099
429.600	13.501	0.099
429.700	13.583	0.099
429.800	6.155	0.099
429.900	-5.981	0.099
430.000	2.128	0.099
430.100	9.383	0.099
430.200	2.804	0.099
430.300	0.246	0.099
430.400	-0.177	0.099
430.500	2.632	0.099
430.600	7.546	0.099
430.700	1.882	0.099
430.800	1.898	0.099
430.900	-3.492	0.099
431.000	4.808	0.100
431.100	2.693	0.100
431.200	0.662	0.100
431.300	-3.815	0.099
431.400	9.053	0.099
431.500	6.493	0.099
431.600	-0.288	0.099
431.700	-3.302	0.099
431.800	8.098	0.099
431.900	-5.949	0.099
432.000	-7.259	0.099
432.100	-0.886	0.099
432.200	2.242	0.099
432.300	4.817	0.099
432.400	-11.985	0.100
432.500	11.705	0.100
432.600	-5.961	0.099
432.700	7.773	0.099
432.800	1.425	0.100
432.900	9.217	0.100
433.000	-5.381	0.100
433.100	-9.975	0.099
433.200	-2.025	0.099
433.300	9.102	0.099
433.400	8.063	0.099
433.500	-0.668	0.099
433.600	1.498	0.099
433.700	-3.906	0.100
433.800	11.406	0.099
433.900	3.938	0.099
434.000	1.044	0.099
434.100	5.442	0.099
434.200	-1.239	0.099
434.300	2.799	0.099
434.400	-4.000	0.099
434.500	4.034	0.099
434.600	-10.430	0.099
434.700	6.984	0.099
434.800	11.084	0.100
434.900	1.385	0.099
435.000	6.141	0.100
435.100	13.515	0.099
435.200	4.956	0.099
435.300	5.125	0.099
435.400	-2.611	0.100
435.500	-11.464	0.099
435.600	-1.162	0.099
435.700	-5.901	0.099
435.800	6.620	0.099
435.900	-6.680	0.099
436.000	5.636	0.099
436.100	6.862	0.099
436.200	-7.190	0.099
436.300	-1.241	0.099
436.400	-7.553	0.099
436.500	-5.201	0.099
436.600	-2.750	0.099
436.700	9.355	0.099
436.800	-5.995	0.099
436.900	-5.775	0.099
437.000	-1.392	0.099
437.100	11.615	0.100
437.200	-3.633	0.099
437.300	3.517	0.099
437.400	9.656	0.099
437.500	3.421	0.100
437.600	-1.511	0.099
437.700	-0.530	0.099
437.800	12.932	0.099
437.900	-1.260	0.100
438.000	-2.261	0.099
438.100	3.496	0.100
438.200	11.675	0.099
438.300	3.768	0.099
438.400	6.728	0.100
438.500	-6.413	0.099
438.600	6.642	0.100
438.700	5.854	0.100
438.800	-5.390	0.099
438.900	-3.628	0.099
439.000	6.358	0.099
439.100	-5.760	0.099
439.200	8.297	0.099
439.300	-2.309	0.099
439.400	0.696	0.099
439.500	-10.982	0.099
439.600	-8.928	0.100
439.700	18.860	0.100
439.800	-3.897	0.099
439.900	7.556	0.100
440.000	12.951	0.099
440.100	12.124	0.099
440.200	-5.034	0.100
440.300	2.067	0.099
440.400	6.041	0.099
440.500	5.834	0.100
440.600	-2.682	0.099
440.700	0.975	0.099
440.800	0.043	0.100
440.900	9.348	0.100
441.000	2.706	0.100
441.100	-1.262	0.099
441.200	-0.843	0.099
441.300	-0.879	0.099
441.400	3.343	0.099
441.500	-2.112	0.099
441.600	-3.010	0.100
441.700	6.016	0.100
441.800	1.020	0.100
441.900	-1.713	0.100
442.000	-1.165	0.100
442.100	1.294	0.099
442.200	-13.145	0.099
442.300	-5.651	0.099
442.400	10.671	0.099
442.500	1.217	0.099
442.600	10.811	0.100
442.700	12.373	0.100
442.800	2.932	0.100
442.900	-3.601	0.099
443.000	-0.623	0.100
443.100	-0.111	0.099
443.200	-1.674	0.099
443.300	-2.328	0.099
443.400	14.203	0.099
443.500	-4.343	0.099
443.600	3.130	0.099
443.700	6.979	0.100
443.800	-0.588	0.099
443.900	-7.427	0.099
444.000	4.726	0.100
444.100	6.018	0.099
444.200	13.949	0.099
444.300	-13.360	0.099
444.400	2.890	0.099
444.500	-2.323	0.099
444.600	0.893	0.100
444.700	-2.025	0.099
444.800	-6.280	0.099
444.900	3.277	0.099
445.000	6.026	0.099
445.100	-4.025	0.100
445.200	1.027	0.099
445.300	4.176	0.100
445.400	-10.661	0.100
445.500	2.506	0.100
445.600	0.996	0.099
445.700	16.126	0.099
445.800	7.841	0.099
445.900	14.562	0.099
446.000	-3.956	0.099
446.100	1.880	0.100
446.200	-7.694	0.100
446.300	7.786	0.100
446.400	2.450	0.099
446.500	15.158	0.099
446.600	-5.301	0.099
446.700	-2.668	0.099
446.800	5.004	0.100
446.900	3.069	0.099
447.000	4.043	0.100
447.100	-12.097	0.099
447.200	9.926	0.099
447.300	-2.481	0.099
447.400	-9.888	0.100
447.500	12.890	0.100
447.600	6.449	0.099
447.700	-4.141	0.099
447.800	0.780	0.099
447.900	2.563	0.099
448.000	6.461	0.100
448.100	6.974	0.099
448.200	-0.343	0.099
448.300	-7.961	0.099
448.400	4.132	0.099
448.500	15.200	0.099
448.600	-3.944	0.099
448.700	-3.330	0.099
448.800	-10.042	0.099
448.900	4.943	0.099
449.000	-11.314	0.099
449.100	0.989	0.099
449.200	-1.109	0.099
449.300	-4.759	0.099
449.400	15.389	0.099
449.500	-9.655	0.099
449.600	9.231	0.099
449.700	-0.447	0.099
449.800	2.726	0.099
449.900	1.873	0.099
450.000	-8.713	0.099
450.100	-3.414	0.099
450.200	8.640	0.099
450.300	-2.708	0.099
450.400	5.659	0.099
450.500	4.812	0.099
450.600	-7.610	0.100
450.700	3.244	0.099
450.800	14.415	0.100
450.900	-1.195	0.099
451.000	9.850	0.099
451.100	1.653	0.099
451.200	-15.032	0.100
451.300	0.425	0.100
451.400	23.284	0.099
451.500	5.187	0.100
451.600	4.783	0.100
451.700	0.473	0.099
451.800	-9.424	0.100
451.900	7.654	0.100
452.000	9.656	0.100
452.100	7.458	0.100
452.200	12.350	0.099
452.300	6.646	0.099
452.400	5.099	0.100
452.500	0.510	0.099
452.600	8.002	0.099
452.700	-6.775	0.099
452.800	-3.507	0.099
452.900	11.215	0.100
453.000	-11.610	0.100
453.100	7.498	0.100
453.200	-2.219	0.100
453.300	7.456	0.099
453.400	-1.539	0.100
453.500	10.246	0.100
453.600	12.107	0.100
453.700	10.004	0.099
453.800	-3.553	0.100
453.900	11.488	0.099
454.000	4.074	0.100
454.100	4.639	0.099
454.200	-9.429	0.100
454.300	7.303	0.100
454.400	9.948	0.099
454.500	-6.111	0.099
454.600	-3.519	0.100
454.700	3.543	0.099
454.800	-0.496	0.100
454.900	-6.009	0.100
455.000	12.327	0.099
455.100	8.331	0.100
455.200	9.939	0.099
455.300	-2.989	0.099
455.400	12.122	0.099
455.500	-9.048	0.100
455.600	-3.076	0.099
455.700	5.459	0.099
455.800	7.996	0.099
455.900	5.362	0.099
456.000	3.602	0.099
456.100	8.706	0.100
456.200	0.836	0.099
456.300	-10.386	0.099
456.400	5.458	0.099
456.500	10.629	0.100
456.600	5.035	0.100
456.700	-9.685	0.099
456.800	3.130	0.099
456.900	-4.161	0.099
457.000	4.019	0.099
457.100	3.491	0.099
457.200	6.091	0.100
457.300	5.996	0.100
457.400	-1.150	0.100
457.500	16.477	0.100
457.600	9.924	0.100
457.700	10.416	0.100
457.800	12.288	0.100
457.900	-1.142	0.100
458.000	0.772	0.100
458.100	4.435	0.100
458.200	-8.331	0.099
458.300	5.175	0.100
458.400	-8.043	0.099
458.500	20.075	0.100
458.600	0.592	0.099
458.700	1.600	0.099
458.800	-9.957	0.099
458.900	-4.230	0.100
459.000	4.538	0.100
459.100	-5.031	0.099
459.200	4.300	0.099
459.300	-2.960	0.100
459.400	13.816	0.100
459.500	1.413	0.099
459.600	15.188	0.100
459.700	-5.835	0.100
459.800	0.681	0.099
459.900	-0.854	0.099
460.000	10.144	0.100
460.100	-6.670	0.099
460.200	3.896	0.099
460.300	-6.956	0.100
460.400	2.873	0.099
460.500	6.703	0.099
460.600	1.295	0.100
460.700	7.619	0.100
460.800	-0.680	0.100
460.900	-0.122	0.100
461.000	-20.049	0.100
461.100	8.547	0.100
461.200	-3.565	0.100
461.300	6.517	0.099
461.400	4.584	0.100
461.500	-9.174	0.100
461.600	0.561	0.100
461.700	9.867	0.100
461.800	-0.308	0.100
461.900	-3.573	0.100
462.000	4.312	0.100
462.100	-0.835	0.100
462.200	-0.668	0.099
462.300	-0.581	0.099
462.400	10.453	0.100
462.500	3.033	0.099
462.600	0.456	0.100
462.700	-10.665	0.100
462.800	14.357	0.100
462.900	0.089	0.100
463.000	-8.473	0.100
463.100	2.862	0.100
463.200	7.195	0.100
463.300	3.864	0.100
463.400	9.757	0.100
463.500	-4.195	0.100
463.600	6.141	0.100
463.700	-8.178	0.100
463.800	5.492	0.100
463.900	-4.461	0.100
464.000	7.633	0.100
464.100	-2.642	0.100
464.200	3.586	0.100
464.300	-0.909	0.100
464.400	4.312	0.100
464.500	-10.205	0.100
464.600	2.458	0.100
464.700	-6.119	0.100
464.800	6.421	0.100
464.900	4.722	0.100
465.000	5.940	0.100
465.100	1.441	0.100
465.200	6.550	0.099
465.300	6.881	0.100
465.400	6.738	0.100
465.500	13.153	0.100
465.600	-8.295	0.100
465.700	-3.572	0.100
465.800	2.579	0.100
465.900	-2.647	0.100
466.000	7.547	0.100
466.100	5.934	0.099
466.200	7.456	0.100
466.300	1.543	0.100
466.400	5.111	0.100
466.500	12.595	0.100
466.600	2.785	0.100
466.700	-1.219	0.100
466.800	1.123	0.100
466.900	-0.375	0.100
467.000	0.540	0.100
467.100	15.879	0.100
467.200	-6.009	0.100
467.300	-4.425	0.100
467.400	2.651	0.100
467.500	1.604	0.100
467.600	1.879	0.100
467.700	11.163	0.100
467.800	1.486	0.100
467.900	10.147	0.099
468.000	4.602	0.100
468.100	-2.708	0.100
468.200	6.887	0.100
468.300	6.666	0.100
468.400	-5.826	0.100
468.500	-12.454	0.100
468.600	-0.496	0.100
468.700	6.304	0.100
468.800	4.566	0.100
468.900	14.607	0.100
469.000	-9.202	0.100
469.100	-9.421	0.100
469.200	13.776	0.100
469.300	-1.344	0.100
469.400	-10.702	0.100
469.500	19.191	0.100
469.600	-0.010	0.100
469.700	0.160	0.100
469.800	4.091	0.100
469.900	1.719	0.100
470.000	-6.637	0.100
470.100	0.904	0.100
470.200	7.845	0.100
470.300	-8.338	0.100
470.400	-17.892	0.100
470.500	15.237	0.100
470.600	-1.766	0.100
470.700	6.298	0.100
470.800	-5.534	0.100
470.900	1.180	0.100
471.000	12.367	0.100
471.100	-11.362	0.100
471.200	6.174	0.100
471.300	1.502	0.100
471.400	-1.194	0.100
471.500	9.137	0.100
471.600	-6.595	0.100
471.700	-0.329	0.100
471.800	5.291	0.100
471.900	5.565	0.100
472.000	1.381	0.100
472.100	1.394	0.100
472.200	-5.252	0.100
472.300	-1.555	0.100
472.400	9.990	0.099
472.500	1.710	0.100
472.600	4.635	0.100
472.700	5.442	0.099
472.800	18.259	0.100
472.900	0.432	0.100
473.000	-2.197	0.100
473.100	-3.163	0.100
473.200	-0.518	0.100
473.300	3.924	0.100
473.400	1.523	0.100
473.500	-2.111	0.100
473.600	-1.388	0.100
473.700	-7.069	0.100
473.800	2.972	0.100
473.900	-5.488	0.100
474.000	2.206	0.099
474.100	-9.496	0.100
474.200	14.976	0.100
474.300	7.581	0.100
474.400	1.371	0.100
474.500	-2.649	0.100
474.600	-2.615	0.100
474.700	9.045	0.100
474.800	6.436	0.100
474.900	7.239	0.100
475.000	-6.925	0.100
475.100	-0.643	0.100
475.200	13.773	0.100
475.300	9.343	0.100
475.400	4.458	0.100
475.500	5.562	0.100
475.600	-5.617	0.100
475.700	0.911	0.100
475.800	4.424	0.100
475.900	6.883	0.100
476.000	2.958	0.100
476.100	-18.793	0.100
476.200	-10.019	0.100
476.300	-10.512	0.100
476.400	-6.273	0.100
476.500	4.087	0.100
476.600	5.960	0.100
476.700	17.415	0.100
476.800	3.112	0.100
476.900	2.946	0.100
477.000	-4.012	0.100
477.100	-7.361	0.100
477.200	-0.125	0.100
477.300	5.346	0.100
477.400	12.615	0.100
477.500	7.054	0.100
477.600	10.754	0.100
477.700	-0.647	0.100
477.800	5.908	0.100
477.900	6.840	0.100
478.000	0.165	0.100
478.100	9.308	0.100
478.200	8.198	0.100
478.300	-2.192	0.100
478.400	1.455	0.100
478.500	7.705	0.100
478.600	-7.658	0.100
478.700	5.324	0.100
478.800	-12.781	0.100
478.900	6.444	0.100
479.000	0.765	0.100
479.100	3.666	0.100
479.200	-4.229	0.100
479.300	5.868	0.100
479.400	5.485	0.100
479.500	6.225	0.100
479.600	12.939	0.100
479.700	-8.276	0.100
479.800	10.734	0.100
479.900	2.384	0.100
480.000	-13.621	0.100
480.100	8.732	0.100
480.200	7.590	0.100
480.300	-5.594	0.100
480.400	1.150	0.100
480.500	-11.171	0.100
480.600	3.132	0.100
480.700	4.483	0.100
480.800	3.471	0.100
480.900	-8.449	0.100
481.000	16.580	0.100
481.100	-1.006	0.100
481.200	1.841	0.100
481.300	1.205	0.100
481.400	-2.479	0.100
481.500	12.533	0.100
481.600	0.396	0.100
481.700	17.742	0.100
481.800	9.638	0.100
481.900	-14.126	0.100
482.000	-1.513	0.100
482.100	-5.023	0.100
482.200	14.308	0.100
482.300	8.144	0.100
482.400	-4.752	0.100
482.500	9.160	0.100
482.600	8.163	0.100
482.700	2.952	0.100
482.800	-0.321	0.100
482.900	-0.267	0.100
483.000	11.726	0.100
483.100	-1.624	0.100
483.200	8.614	0.100
483.300	0.284	0.100
483.400	-5.805	0.100
483.500	1.092	0.100
483.600	9.156	0.100
483.700	-3.230	0.100
483.800	5.890	0.100
483.900	5.718	0.100
484.000	-1.711	0.100
484.100	4.438	0.100
484.200	4.055	0.100
484.300	11.530	0.100
484.400	3.991	0.100
484.500	2.528	0.100
484.600	1.707	0.100
484.700	9.487	0.100
484.800	8.050	0.100
484.900	15.798	0.100
485.000	-5.058	0.100
485.100	7.237	0.100
485.200	-7.910	0.100
485.300	-9.307	0.100
485.400	16.242	0.100
485.500	0.771	0.100
485.600	10.840	0.100
485.700	3.668	0.100
485.800	6.294	0.100
485.900	0.656	0.100
486.000	9.034	0.100
486.100	-6.057	0.100
486.200	17.729	0.100
486.300	-0.139	0.100
486.400	13.888	0.100
486.500	7.547	0.100
486.600	11.881	0.100
486.700	-0.494	0.100
486.800	8.323	0.100
486.900	1.336	0.100
487.000	3.266	0.100
487.100	8.227	0.100
487.200	3.274	0.100
487.300	5.351	0.100
487.400	-7.250	0.100
487.500	14.898	0.100
487.600	4.019	0.100
487.700	2.650	0.100
487.800	19.444	0.100
487.900	10.900	0.100
488.000	9.509	0.100
488.100	10.627	0.100
488.200	4.990	0.100
488.300	-1.439	0.100
488.400	-3.011	0.100
488.500	-3.416	0.100
488.600	-7.693	0.100
488.700	5.476	0.100
488.800	12.353	0.100
488.900	2.269	0.100
489.000	12.617	0.100
489.100	1.368	0.100
489.200	5.591	0.100
489.300	2.817	0.100
489.400	13.761	0.100
489.500	2.982	0.100
489.600	-1.504	0.100
489.700	5.595	0.100
489.800	-6.924	0.100
489.900	1.250	0.100
490.000	7.505	0.100
490.100	0.533	0.100
490.200	0.607	0.100
490.300	13.831	0.100
490.400	2.197	0.100
490.500	1.565	0.100
490.600	7.352	0.100
490.700	5.469	0.100
490.800	-2.392	0.100
490.900	-5.065	0.100
491.000	8.834	0.100
491.100	0.711	0.100
491.200	10.532	0.100
491.300	20.486	0.100
491.400	3.123	0.100
491.500	-2.162	0.100
491.600	7.459	0.100
491.700	0.618	0.100
491.800	15.761	0.100
491.900	7.238	0.100
492.000	11.634	0.100
492.100	10.125	0.100
492.200	6.957	0.100
492.300	3.694	0.100
492.400	8.381	0.100
492.500	-3.095	0.100
492.600	7.575	0.100
492.700	-3.022	0.100
492.800	-2.961	0.100
492.900	3.777	0.100
493.000	9.675	0.100
493.100	6.269	0.100
493.200	7.838	0.100
493.300	2.987	0.100
493.400	-2.489	0.100
493.500	2.332	0.100
493.600	11.495	0.100
493.700	-14.234	0.100
493.800	9.570	0.100
493.900	10.559	0.100
494.000	6.935	0.100
494.100	6.678	0.100
494.200	-1.862	0.100
494.300	2.715	0.100
494.400	7.201	0.100
494.500	-1.085	0.100
494.600	9.597	0.100
494.700	0.496	0.100
494.800	2.334	0.100
494.900	10.555	0.100
495.000	5.168	0.100
495.100	-3.425	0.100
495.200	2.797	0.100
495.300	9.416	0.100
495.400	0.608	0.100
495.500	-0.507	0.100
495.600	12.812	0.100
495.700	-1.814	0.100
495.800	5.325	0.100
495.900	-11.356	0.100
496.000	8.842	0.100
496.100	8.595	0.100
496.200	1.254	0.100
496.300	6.777	0.100
496.400	3.985	0.100
496.500	-2.138	0.100
496.600	10.323	0.100
496.700	-4.547	0.100
496.800	-8.242	0.100
496.900	12.046	0.100
497.000	-8.966	0.100
497.100	13.125	0.100
497.200	-6.134	0.100
497.300	8.276	0.100
497.400	1.641	0.100
497.500	9.299	0.100
497.600	5.339	0.100
497.700	1.272	0.100
497.800	-1.752	0.100
497.900	18.087	0.100
498.000	-2.740	0.100
498.100	4.367	0.100
498.200	16.663	0.100
498.300	0.278	0.100
498.400	4.546	0.100
498.500	-5.605	0.100
498.600	1.741	0.100
498.700	9.356	0.100
498.800	-4.547	0.100
498.900	-7.253	0.100
499.000	6.794	0.100
499.100	7.187	0.100
499.200	6.916	0.100
499.300	1.690	0.100
499.400	9.106	0.100
499.500	-2.764	0.100
499.600	7.377	0.100
499.700	-5.029	0.100
499.800	-2.699	0.100
499.900	-10.931	0.100
500.000	9.418	0.100
500.100	8.610	0.100
500.200	-8.958	0.100
500.300	7.383	0.100
500.400	-5.117	0.100
500.500	14.936	0.100
500.600	7.613	0.100
500.700	-12.547	0.100
500.800	3.202	0.100
500.900	5.766	0.100
501.000	12.220	0.100
501.100	-7.797	0.100
501.200	1.949	0.100
501.300	8.398	0.100
501.400	-7.892	0.100
501.500	16.832	0.100
501.600	9.017	0.100
501.700	9.978	0.100
501.800	0.381	0.100
501.900	2.824	0.100
502.000	3.534	0.100
502.100	10.865	0.100
502.200	-5.587	0.100
502.300	1.537	0.100
502.400	8.414	0.100
502.500	15.014	0.100
502.600	2.150	0.100
502.700	5.878	0.100
502.800	2.602	0.100
502.900	6.256	0.100
503.000	-5.235	0.100
503.100	-6.888	0.100
503.200	2.259	0.100
503.300	4.139	0.100
503.400	0.409	0.100
503.500	14.420	0.100
503.600	4.373	0.100
503.700	-2.817	0.100
503.800	5.779	0.100
503.900	-10.989	0.100
504.000	38.152	0.100
504.100	-0.905	0.100
504.200	8.473	0.100
504.300	5.354	0.100
504.400	2.257	0.100
504.500	-0.058	0.100
504.600	4.284	0.100
504.700	12.924	0.100
504.800	2.264	0.100
504.900	3.045	0.100
505.000	9.215	0.100
505.100	4.200	0.100
505.200	-10.096	0.100
505.300	5.662	0.100
505.400	-0.414	0.100
505.500	2.400	0.100
505.600	3.534	0.100
505.700	3.842	0.100
505.800	8.341	0.100
505.900	1.718	0.100
506.000	1.846	0.100
506.100	11.107	0.100
506.200	-8.666	0.100
506.300	12.739	0.100
506.400	-7.885	0.100
506.500	1.894	0.100
506.600	0.796	0.100
506.700	14.586	0.100
506.800	11.043	0.100
506.900	3.525	0.100
507.000	-1.674	0.100
507.100	1.670	0.100
507.200	10.548	0.100
507.300	14.386	0.100
507.400	1.150	0.100
507.500	-3.266	0.100
507.600	9.527	0.100
507.700	-4.125	0.100
507.800	-3.254	0.100
507.900	-0.334	0.100
508.000	7.436	0.100
508.100	2.685	0.100
508.200	-8.001	0.100
508.300	16.619	0.100
508.400	-2.489	0.100
508.500	17.376	0.100
508.600	-12.848	0.100
508.700	-12.397	0.100
508.800	18.161	0.100
508.900	-5.302	0.100
509.000	3.651	0.100
509.100	16.842	0.100
509.200	-0.535	0.100
509.300	-1.644	0.100
509.400	-4.850	0.100
509.500	-3.465	0.100
509.600	0.399	0.100
509.700	9.962	0.100
509.800	20.722	0.100
509.900	6.558	0.100
510.000	-1.118	0.100
510.100	-2.297	0.100
510.200	0.339	0.100
510.300	-6.203	0.100
510.400	13.105	0.100
510.500	-11.889	0.100
510.600	3.127	0.100
510.700	-3.482	0.100
510.800	5.902	0.100
510.900	0.840	0.100
511.000	-2.849	0.100
511.100	1.540	0.100
511.200	5.038	0.100
511.300	9.926	0.100
511.400	8.994	0.100
511.500	9.299	0.100
511.600	1.123	0.100
511.700	3.371	0.100
511.800	-1.392	0.100
511.900	5.170	0.100
512.000	5.187	0.100
512.100	7.700	0.100
512.200	-1.423	0.100
512.300	-0.733	0.100
512.400	10.860	0.100
512.500	8.735	0.100
512.600	-2.165	0.100
512.700	4.963	0.100
512.800	-0.139	0.100
512.900	11.403	0.100
513.000	8.317	0.100
513.100	-6.421	0.100
513.200	6.272	0.100
513.300	-3.590	0.100
513.400	3.896	0.100
513.500	-1.781	0.100
513.600	15.507	0.100
513.700	-10.050	0.100
513.800	2.470	0.100
513.900	1.656	0.100
514.000	9.617	0.100
514.100	8.048	0.100
514.200	-5.655	0.100
514.300	6.334	0.100
514.400	10.571	0.100
514.500	2.445	0.100
514.600	-3.503	0.100
514.700	-1.316	0.100
514.800	2.837	0.100
514.900	0.927	0.100
515.000	11.282	0.100
515.100	-4.462	0.100
515.200	-2.653	0.100
515.300	4.579	0.100
515.400	4.532	0.100
515.500	12.342	0.100
515.600	1.819	0.100
515.700	-1.940	0.100
515.800	-14.370	0.100
515.900	9.254	0.100
516.000	-7.924	0.100
516.100	3.092	0.100
516.200	-1.954	0.100
516.300	6.386	0.100
516.400	1.011	0.100
516.500	12.095	0.100
516.600	-12.148	0.100
516.700	-1.111	0.100
516.800	9.046	0.100
516.900	13.544	0.100
517.000	6.324	0.100
517.100	-3.426	0.100
517.200	-8.670	0.100
517.300	13.928	0.100
517.400	1.996	0.100
517.500	1.145	0.100
517.600	4.599	0.100
517.700	-5.764	0.100
517.800	14.460	0.100
517.900	0.254	0.100
518.000	-4.029	0.100
518.100	10.089	0.100
518.200	1.934	0.100
518.300	-1.577	0.100
518.400	1.218	0.100
518.500	-4.758	0.100
518.600	10.400	0.100
518.700	4.927	0.100
518.800	-16.170	0.100
518.900	15.538	0.100
519.000	8.441	0.100
519.100	-3.335	0.100
519.200	19.468	0.100
519.300	11.511	0.100
519.400	1.178	0.100
519.500	3.410	0.100
519.600	-8.089	0.100
519.700	12.725	0.100
519.800	2.263	0.100
519.900	4.537	0.100
520.000	-9.553	0.100
520.100	5.384	0.100
520.200	10.398	0.100
520.300	1.519	0.100
520.400	4.793	0.100
520.500	12.640	0.100
520.600	5.675	0.100
520.700	4.317	0.100
520.800	-11.902	0.100
520.900	-4.070	0.100
521.000	-0.902	0.100
521.100	3.410	0.100
521.200	6.307	0.100
521.300	0.503	0.100
521.400	2.659	0.100
521.500	6.440	0.100
521.600	-14.717	0.100
521.700	15.526	0.100
521.800	2.650	0.100
521.900	-10.114	0.100
522.000	-11.888	0.100
522.100	27.391	0.100
522.200	7.922	0.100
522.300	1.930	0.100
522.400	-4.112	0.100
522.500	15.024	0.100
522.600	8.992	0.100
522.700	-4.041	0.100
522.800	12.580	0.100
522.900	-4.548	0.100
523.000	-0.602	0.100
523.100	-14.350	0.100
523.200	6.722	0.100
523.300	5.197	0.100
523.400	0.571	0.100
523.500	6.905	0.100
523.600	-3.856	0.100
523.700	9.439	0.100
523.800	7.740	0.100
523.900	0.104	0.100
524.000	13.499	0.100
524.100	-7.642	0.100
524.200	5.489	0.100
524.300	11.374	0.100
524.400	-0.364	0.100
524.500	7.469	0.100
524.600	-3.942	0.100
524.700	3.086	0.100
524.800	0.699	0.100
524.900	-11.997	0.100
525.000	-0.858	0.100
525.100	5.815	0.100
525.200	6.671	0.100
525.300	-5.880	0.100
525.400	2.560	0.100
525.500	13.802	0.100
525.600	-1.777	0.100
525.700	4.020	0.100
525.800	8.315	0.100
525.900	-0.637	0.100
526.000	18.193	0.100
526.100	13.885	0.100
526.200	1.125	0.100
526.300	-0.046	0.100
526.400	4.596	0.100
526.500	8.739	0.100
526.600	-7.022	0.100
526.700	13.945	0.100
526.800	7.455	0.100
526.900	5.188	0.100
527.000	2.676	0.100
527.100	-11.905	0.100
527.200	-13.100	0.100
527.300	13.379	0.100
527.400	3.167	0.100
527.500	7.584	0.100
527.600	-10.390	0.100
527.700	0.745	0.100
527.800	14.396	0.100
527.900	6.048	0.100
528.000	11.195	0.100
528.100	1.393	0.100
528.200	-9.748	0.100
528.300	1.185	0.100
528.400	-13.435	0.100
528.500	16.307	0.100
528.600	18.345	0.100
528.700	3.711	0.100
528.800	6.197	0.100
528.900	-7.861	0.100
529.000	11.330	0.100
529.100	-0.478	0.100
529.200	5.049	0.100
529.300	-1.916	0.100
529.400	-10.501	0.100
529.500	-12.665	0.100
529.600	16.906	0.100
529.700	7.423	0.100
529.800	6.538	0.100
529.900	12.447	0.100
530.000	1.496	0.100
530.100	6.725	0.100
530.200	-0.005	0.100
530.300	2.164	0.100
530.400	-0.255	0.100
530.500	-15.981	0.100
530.600	8.170	0.100
530.700	10.436	0.100
530.800	17.154	0.100
530.900	4.065	0.100
531.000	3.135	0.100
531.100	2.646	0.100
531.200	-6.189	0.100
531.300	10.071	0.100
531.400	7.621	0.100
531.500	-11.624	0.100
531.600	7.983	0.100
531.700	9.226	0.100
531.800	3.811	0.100
531.900	3.595	0.100
532.000	1.366	0.100
532.100	15.498	0.100
532.200	-4.721	0.100
532.300	-0.688	0.100
532.400	0.191	0.100
532.500	-0.894	0.100
532.600	0.424	0.100
532.700	-10.630	0.100
532.800	3.032	0.100
532.900	-1.416	0.100
533.000	1.916	0.100
533.100	17.901	0.100
533.200	-0.132	0.100
533.300	10.066	0.100
533.400	0.924	0.100
533.500	11.941	0.100
533.600	9.684	0.100
533.700	5.343	0.100
533.800	2.795	0.100
533.900	4.427	0.100
534.000	-1.867	0.100
534.100	1.974	0.100
534.200	-6.392	0.100
534.300	13.136	0.100
534.400	-0.084	0.100
534.500	-0.981	0.100
534.600	-5.765	0.100
534.700	6.870	0.100
534.800	17.188	0.100
534.900	-11.846	0.100
535.000	8.075	0.100
535.100	17.387	0.100
535.200	8.603	0.100
535.300	-17.367	0.100
535.400	8.189	0.100
535.500	-2.691	0.100
535.600	6.074	0.099
535.700	12.931	0.099
535.800	-5.144	0.099
535.900	0.548	0.099
536.000	0.477	0.099
536.100	7.771	0.099
536.200	2.494	0.099
536.300	2.421	0.099
536.400	13.098	0.099
536.500	0.057	0.099
536.600	3.876	0.099
536.700	1.704	0.099
536.800	15.928	0.099
536.900	5.561	0.099
537.000	1.551	0.099
537.100	13.812	0.099
537.200	3.611	0.099
537.300	7.123	0.099
537.400	-2.412	0.099
537.500	2.911	0.099
537.600	7.549	0.099
537.700	1.144	0.099
537.800	-0.458	0.099
537.900	-5.442	0.099
538.000	10.237	0.099
538.100	4.739	0.099
538.200	9.157	0.099
538.300	-0.472	0.099
538.400	-0.135	0.099
538.500	-6.696	0.099
538.600	8.799	0.099
538.700	2.778	0.099
538.800	-13.442	0.099
538.900	0.810	0.099
539.000	-18.940	0.099
539.100	16.219	0.099
539.200	-0.265	0.099
539.300	4.286	0.099
539.400	-8.618	0.099
539.500	24.472	0.099
539.600	8.623	0.099
539.700	-1.935	0.099
539.800	3.569	0.099
539.900	5.391	0.099
540.000	-11.176	0.099
540.100	10.505	0.099
540.200	1.126	0.099
540.300	15.948	0.099
540.400	-15.915	0.099
540.500	-9.677	0.099
540.600	8.596	0.099
540.700	19.880	0.099
540.800	1.357	0.099
540.900	4.263	0.099
541.000	-2.315	0.099
541.100	15.905	0.099
541.200	9.406	0.099
541.300	-2.112	0.099
541.400	1.809	0.099
541.500	10.432	0.099
541.600	-18.015	0.099
541.700	-4.088	0.099
541.800	-2.949	0.099
541.900	-15.056	0.099
542.000	-0.761	0.099
542.100	8.438	0.099
542.200	3.949	0.099
542.300	0.278	0.099
542.400	-3.989	0.099
542.500	13.199	0.099
542.600	3.871	0.099
542.700	0.817	0.099
542.800	1.159	0.099
542.900	2.264	0.099
543.000	4.211	0.099
543.100	5.481	0.099
543.200	-0.175	0.099
543.300	4.727	0.099
543.400	-0.453	0.099
543.500	-0.722	0.099
543.600	-4.959	0.099
543.700	-8.348	0.099
543.800	6.437	0.099
543.900	2.746	0.099
544.000	-0.949	0.099
544.100	5.374	0.099
544.200	-12.613	0.099
544.300	3.323	0.099
544.400	-1.391	0.099
544.500	5.256	0.099
544.600	-11.377	0.099
544.700	20.621	0.099
544.800	-11.854	0.099
544.900	-3.437	0.099
545.000	14.687	0.099
545.100	-4.368	0.099
545.200	-4.501	0.099
545.300	-2.811	0.099
545.400	-12.110	0.099
545.500	1.707	0.099
545.600	2.172	0.099
545.700	7.758	0.099
545.800	1.951	0.099
545.900	1.192	0.099
546.000	-1.089	0.099
546.100	5.802	0.099
546.200	13.044	0.099
546.300	0.594	0.099
546.400	-4.353	0.099
546.500	-0.902	0.099
546.600	-0.198	0.099
546.700	-4.107	0.099
546.800	-2.585	0.099
546.900	-1.460	0.099
547.000	-6.811	0.099
547.100	2.220	0.099
547.200	-6.292	0.099
547.300	0.616	0.099
547.400	-25.514	0.099
547.500	5.126	0.099
547.600	6.141	0.099
547.700	-8.256	0.099
547.800	8.286	0.099
547.900	12.470	0.099
548.000	-6.374	0.099
548.100	12.093	0.099
548.200	-3.720	0.099
548.300	-10.563	0.099
548.400	8.598	0.099
548.500	-4.183	0.099
548.600	-4.884	0.099
548.700	-0.898	0.099
548.800	-4.352	0.099
548.900	-9.493	0.099
549.000	-6.397	0.099
549.100	3.451	0.099
549.200	2.509	0.099
549.300	-6.726	0.099
549.400	-2.910	0.099
549.500	2.213	0.099
549.600	2.064	0.099
549.700	-4.703	0.099
549.800	-1.556	0.099
549.900	1.668	0.099
550.000	-6.521	0.099
550.100	1.979	0.099
550.200	-1.244	0.099
550.300	3.519	0.099
550.400	-11.639	0.099
550.500	4.606	0.099
550.600	-1.062	0.099
550.700	-2.576	0.099
550.800	8.749	0.099
550.900	11.168	0.099
551.000	2.635	0.099
551.100	2.642	0.099
551.200	1.984	0.099
551.300	-11.686	0.099
551.400	-3.112	0.099
551.500	-6.011	0.099
551.600	12.912	0.099
551.700	-4.747	0.099
551.800	-5.209	0.099
551.900	4.747	0.099
552.000	-3.747	0.099
552.100	-5.098	0.099
552.200	2.053	0.099
552.300	-13.776	0.099
552.400	4.732	0.099
552.500	10.411	0.099
552.600	-0.848	0.099
552.700	1.662	0.099
552.800	0.300	0.099
552.900	9.718	0.099
553.000	4.222	0.099
553.100	2.277	0.099
553.200	-4.922	0.099
553.300	12.108	0.099
553.400	-6.928	0.099
553.500	2.654	0.099
553.600	10.683	0.099
553.700	-1.455	0.099
553.800	12.710	0.099
553.900	1.535	0.099
554.000	-0.706	0.099
554.100	-5.891	0.099
554.200	0.511	0.099
554.300	9.529	0.099
554.400	4.378	0.099
554.500	-4.216	0.099
554.600	-3.459	0.099
554.700	6.327	0.099
554.800	-3.478	0.099
554.900	11.214	0.099
555.000	-1.806	0.099
555.100	-2.306	0.099
555.200	-14.543	0.099
555.300	1.608	0.099
555.400	0.783	0.099
555.500	-6.812	0.099
555.600	-9.829	0.099
555.700	16.467	0.099
555.800	-4.098	0.099
555.900	5.908	0.099
556.000	-5.313	0.099
556.100	-10.033	0.099
556.200	2.887	0.099
556.300	8.200	0.099
556.400	4.898	0.099
556.500	3.030	0.099
556.600	0.713	0.099
556.700	-1.083	0.099
556.800	-11.337	0.099
556.900	3.906	0.099
557.000	2.143	0.099
557.100	12.798	0.099
557.200	7.206	0.099
557.300	7.871	0.099
557.400	-6.850	0.099
557.500	-12.183	0.099
557.600	7.432	0.099
557.700	-3.524	0.099
557.800	7.270	0.099
557.900	4.386	0.099
558.000	-3.525	0.099
558.100	7.285	0.099
558.200	-3.166	0.099
558.300	14.151	0.099
558.400	3.132	0.099
558.500	-7.104	0.099
558.600	-0.177	0.099
558.700	7.026	0.099
558.800	8.044	0.099
558.900	6.087	0.099
559.000	4.163	0.099
559.100	-9.077	0.099
559.200	-8.219	0.099
559.300	1.351	0.099
559.400	-10.338	0.099
559.500	13.046	0.099
559.600	-13.333	0.099
559.700	6.442	0.100
559.800	4.434	0.099
559.900	4.725	0.099
560.000	0.679	0.099
560.100	1.663	0.099
560.200	17.599	0.100
560.300	-1.527	0.099
560.400	1.027	0.099
560.500	15.002	0.099
560.600	-3.412	0.099
560.700	7.149	0.099
560.800	-8.400	0.100
560.900	-1.455	0.099
561.000	6.356	0.100
561.100	2.265	0.099
561.200	-11.936	0.099
561.300	-1.438	0.099
561.400	2.319	0.099
561.500	7.763	0.099
561.600	9.060	0.099
561.700	-10.883	0.099
561.800	-6.734	0.099
561.900	-8.679	0.099
562.000	7.605	0.099
562.100	-4.618	0.099
562.200	2.591	0.099
562.300	7.473	0.099
562.400	0.652	0.099
562.500	1.446	0.099
562.600	-3.380	0.099
562.700	1.615	0.099
562.800	8.361	0.099
562.900	-10.469	0.099
563.000	2.021	0.099
563.100	4.287	0.099
563.200	1.320	0.099
563.300	-1.457	0.099
563.400	-6.912	0.099
563.500	-2.333	0.099
563.600	3.604	0.100
563.700	-14.365	0.099
563.800	-0.596	0.099
563.900	0.560	0.099
564.000	11.731	0.099
564.100	-16.703	0.099
564.200	5.742	0.099
564.300	2.701	0.099
564.400	8.692	0.099
564.500	4.429	0.099
564.600	-4.146	0.100
564.700	8.188	0.099
564.800	3.735	0.099
564.900	3.938	0.099
565.000	1.773	0.099
565.100	5.383	0.099
565.200	-3.192	0.099
565.300	-10.400	0.099
565.400	2.994	0.099
565.500	-10.058	0.100
565.600	-12.202	0.099
565.700	3.204	0.099
565.800	13.182	0.100
565.900	-0.489	0.099
566.000	-1.916	0.099
566.100	-20.745	0.099
566.200	9.499	0.099
566.300	7.329	0.099
566.400	-7.711	0.100
566.500	1.723	0.099
566.600	-8.572	0.099
566.700	6.775	0.099
566.800	2.316	0.099
566.900	1.801	0.099
567.000	-1.629	0.099
567.100	11.170	0.099
567.200	-2.664	0.099
567.300	-3.311	0.099
567.400	7.017	0.099
567.500	0.318	0.099
567.600	8.910	0.099
567.700	14.213	0.099
567.800	13.366	0.099
567.900	-10.074	0.100
568.000	-1.467	0.099
568.100	1.498	0.099
568.200	14.747	0.099
568.300	10.110	0.099
568.400	-0.318	0.099
568.500	-6.780	0.099
568.600	-7.613	0.099
568.700	10.215	0.099
568.800	-7.857	0.099
568.900	-3.033	0.099
569.000	3.670	0.099
569.100	8.915	0.099
569.200	5.254	0.099
569.300	-1.487	0.100
569.400	-1.842	0.099
569.500	-0.534	0.099
569.600	7.659	0.099
569.700	-5.678	0.099
569.800	9.309	0.099
569.900	-17.068	0.099
570.000	-1.349	0.099
570.100	9.681	0.099
570.200	-5.185	0.099
570.300	3.637	0.099
570.400	2.619	0.099
570.500	-1.285	0.099
570.600	-8.446	0.099
570.700	2.751	0.100
570.800	-16.724	0.099
570.900	7.779	0.099
571.000	9.693	0.099
571.100	0.690	0.099
571.200	2.896	0.099
571.300	-2.544	0.099
571.400	-4.507	0.099
571.500	-3.152	0.099
571.600	8.510	0.099
571.700	-4.213	0.099
571.800	4.902	0.099
571.900	-2.202	0.099
572.000	-0.116	0.099
572.100	12.648	0.099
572.200	-16.586	0.099
572.300	1.661	0.099
572.400	3.210	0.099
572.500	-1.325	0.099
572.600	-4.972	0.099
572.700	12.031	0.099
572.800	4.494	0.099
572.900	7.937	0.099
573.000	0.225	0.099
573.100	-10.479	0.100
573.200	3.729	0.099
573.300	-1.698	0.099
573.400	9.839	0.099
573.500	9.328	0.099
573.600	-0.934	0.099
573.700	-6.958	0.099
573.800	12.256	0.099
573.900	-0.094	0.099
574.000	-7.335	0.100
574.100	-1.700	0.099
574.200	-0.303	0.099
574.300	17.990	0.099
574.400	12.894	0.099
574.500	1.716	0.099
574.600	16.811	0.100
574.700	-1.858	0.099
574.800	-10.282	0.099
574.900	17.373	0.099
575.000	-1.292	0.099
575.100	11.841	0.099
575.200	-1.113	0.099
575.300	4.931	0.099
575.400	-8.736	0.099
575.500	-7.403	0.099
575.600	7.926	0.099
575.700	-7.624	0.099
575.800	-0.389	0.099
575.900	1.944	0.099
576.000	4.762	0.099
576.100	3.337	0.099
576.200	4.138	0.099
576.300	-5.739	0.099
576.400	0.669	0.099
576.500	-4.953	0.099
576.600	-2.612	0.099
576.700	1.812	0.099
576.800	-1.724	0.099
576.900	-7.491	0.099
577.000	6.949	0.099
577.100	-1.311	0.099
577.200	0.259	0.099
577.300	7.811	0.099
577.400	7.539	0.099
577.500	2.162	0.099
577.600	1.666	0.099
577.700	-7.340	0.099
577.800	4.599	0.099
577.900	2.868	0.099
578.000	8.225	0.099
578.100	-18.266	0.099
578.200	10.858	0.099
578.300	6.931	0.099
578.400	4.361	0.099
578.500	8.041	0.099
578.600	-6.648	0.099
578.700	4.775	0.099
578.800	10.007	0.099
578.900	5.406	0.099
579.000	2.370	0.099
579.100	-0.878	0.099
579.200	2.979	0.099
579.300	-14.406	0.099
579.400	-5.866	0.099
579.500	-9.767	0.099
579.600	8.779	0.099
579.700	-7.779	0.099
579.800	4.220	0.099
579.900	-0.145	0.099
580.000	-2.737	0.099
580.100	8.700	0.099
580.200	-14.297	0.099
580.300	1.682	0.099
580.400	-2.764	0.099
580.500	-2.928	0.099
580.600	8.323	0.099
580.700	0.179	0.099
580.800	-4.776	0.099
580.900	6.668	0.099
581.000	3.095	0.099
581.100	0.370	0.099
581.200	3.453	0.099
581.300	-13.377	0.099
581.400	7.927	0.099
581.500	-9.046	0.099
581.600	14.276	0.099
581.700	14.477	0.099
581.800	0.495	0.099
581.900	-14.504	0.099
582.000	-0.186	0.099
582.100	9.182	0.099
582.200	-7.097	0.099
582.300	-1.172	0.099
582.400	5.003	0.099
582.500	-1.677	0.099
582.600	4.829	0.099
582.700	1.128	0.099
582.800	2.372	0.099
582.900	5.076	0.099
583.000	-3.884	0.099
583.100	4.683	0.099
583.200	-4.234	0.099
583.300	6.016	0.099
583.400	5.432	0.099
583.500	-2.180	0.099
583.600	-0.870	0.099
583.700	8.539	0.099
583.800	10.380	0.099
583.900	5.190	0.099
584.000	6.000	0.099
584.100	-6.635	0.099
584.200	-3.163	0.099
584.300	-11.269	0.099
584.400	-6.411	0.099
584.500	18.389	0.099
584.600	7.917	0.099
584.700	6.684	0.099
584.800	-13.247	0.099
584.900	-16.193	0.099
585.000	1.535	0.099
585.100	-1.345	0.099
585.200	3.129	0.099
585.300	14.240	0.099
585.400	-1.572	0.099
585.500	4.803	0.099
585.600	-0.716	0.099
585.700	2.300	0.099
585.800	11.247	0.099
585.900	-11.878	0.099
586.000	4.685	0.099
586.100	-0.313	0.099
586.200	-1.578	0.099
586.300	7.068	0.099
586.400	6.527	0.099
586.500	3.158	0.099
586.600	-13.033	0.100
586.700	4.428	0.099
586.800	12.022	0.100
586.900	-2.511	0.099
587.000	1.685	0.099
587.100	-8.057	0.099
587.200	0.765	0.099
587.300	-2.993	0.099
587.400	-4.494	0.099
587.500	-0.625	0.099
587.600	-15.205	0.100
587.700	1.183	0.099
587.800	1.525	0.099
587.900	4.405	0.099
588.000	-1.575	0.099
588.100	7.530	0.099
588.200	9.613	0.099
588.300	-0.218	0.099
588.400	6.209	0.099
588.500	-1.707	0.099
588.600	-0.528	0.099
588.700	3.445	0.099
588.800	3.838	0.099
588.900	10.519	0.099
589.000	4.164	0.099
589.100	3.783	0.099
589.200	-8.044	0.099
589.300	21.760	0.099
589.400	-15.053	0.100
589.500	6.903	0.099
589.600	8.651	0.099
589.700	-9.165	0.100
589.800	9.040	0.099
589.900	6.794	0.099
590.000	-16.774	0.099
590.100	11.946	0.099
590.200	2.607	0.099
590.300	2.375	0.099
590.400	-0.381	0.099
590.500	-4.926	0.099
590.600	15.136	0.099
590.700	-3.077	0.099
590.800	-9.250	0.099
590.900	12.280	0.099
591.000	9.496	0.099
591.100	-5.980	0.099
591.200	5.677	0.099
591.300	3.585	0.100
591.400	4.572	0.099
591.500	7.695	0.100
591.600	1.292	0.100
591.700	9.110	0.100
591.800	7.046	0.100
591.900	3.415	0.100
592.000	-1.299	0.100
592.100	5.223	0.100
592.200	-1.107	0.100
592.300	-5.222	0.100
592.400	-2.603	0.100
592.500	-0.782	0.100
592.600	9.493	0.100
592.700	2.339	0.100
592.800	-4.924	0.100
592.900	-2.527	0.100
593.000	9.548	0.100
593.100	6.733	0.100
593.200	-0.869	0.100
593.300	0.654	0.100
593.400	1.630	0.100
593.500	0.176	0.100
593.600	3.129	0.100
593.700	-0.144	0.100
593.800	2.918	0.100
593.900	-5.238	0.100
594.000	10.156	0.100
594.100	-0.200	0.100
594.200	-1.982	0.100
594.300	-2.630	0.100
594.400	2.137	0.100
594.500	2.363	0.100
594.600	-0.797	0.100
594.700	-8.691	0.100
594.800	-6.781	0.100
594.900	7.767	0.100
595.000	9.996	0.100
595.100	5.440	0.100
595.200	0.598	0.100
595.300	3.503	0.100
595.400	6.549	0.100
595.500	8.307	0.100
595.600	1.413	0.100
595.700	16.409	0.100
595.800	-4.081	0.100
595.900	1.086	0.100
596.000	3.066	0.100
596.100	1.817	0.100
596.200	5.933	0.100
596.300	-11.440	0.100
596.400	6.039	0.100
596.500	-8.424	0.100
596.600	7.288	0.100
596.700	1.070	0.100
596.800	-8.168	0.100
596.900	-5.088	0.100
597.000	10.941	0.100
597.100	3.023	0.100
597.200	-1.874	0.100
597.300	11.295	0.099
597.400	-1.786	0.099
597.500	2.919	0.099
597.600	4.049	0.099
597.700	-20.239	0.099
597.800	6.949	0.099
597.900	-4.253	0.099
598.000	-2.839	0.099
598.100	10.943	0.099
598.200	-0.015	0.099
598.300	-0.584	0.099
598.400	12.413	0.099
598.500	13.613	0.099
598.600	-1.007	0.099
598.700	-0.685	0.099
598.800	-3.835	0.099
598.900	-1.574	0.099
599.000	4.079	0.099
599.100	-4.769	0.099
599.200	5.794	0.099
599.300	19.899	0.099
599.400	-4.966	0.099
599.500	6.926	0.099
599.600	-0.094	0.099
599.700	5.473	0.099
599.800	-2.085	0.099
599.900	-2.245	0.099
600.000	7.102	0.099
600.100	3.003	0.099
600.200	-6.884	0.099
600.300	-9.163	0.099
600.400	-1.993	0.099
600.500	-2.725	0.099
600.600	1.452	0.099
600.700	12.793	0.099
600.800	-5.161	0.099
600.900	5.085	0.099
601.000	-5.569	0.099
601.100	5.581	0.099
601.200	3.521	0.099
601.300	2.696	0.099
601.400	-3.373	0.099
601.500	10.126	0.099
601.600	-1.007	0.099
601.700	-4.373	0.099
601.800	-2.705	0.099
601.900	8.499	0.099
602.000	5.817	0.099
602.100	6.350	0.099
602.200	1.290	0.099
602.300	-5.232	0.099
602.400	-2.795	0.099
602.500	-0.284	0.099
602.600	6.378	0.099
602.700	7.282	0.099
602.800	7.999	0.099
602.900	-11.176	0.099
603.000	-25.351	0.099
603.100	2.161	0.099
603.200	12.037	0.099
603.300	4.762	0.099
603.400	5.463	0.099
603.500	-5.022	0.099
603.600	5.354	0.099
603.700	-1.717	0.099
603.800	-5.191	0.099
603.900	-2.903	0.099
604.000	-2.093	0.099
604.100	-2.264	0.099
604.200	3.967	0.099
604.300	8.082	0.099
604.400	0.072	0.099
604.500	-6.966	0.099
604.600	-0.876	0.099
604.700	7.179	0.099
604.800	-4.687	0.099
604.900	-3.027	0.099
605.000	6.002	0.099
605.100	3.604	0.099
605.200	1.927	0.099
605.300	-8.378	0.099
605.400	-0.490	0.099
605.500	-3.563	0.099
605.600	10.447	0.099
605.700	10.307	0.099
605.800	0.310	0.099
605.900	-4.063	0.099
606.000	-5.571	0.099
606.100	4.175	0.099
606.200	6.649	0.099
606.300	8.045	0.099
606.400	-14.429	0.099
606.500	4.783	0.099
606.600	-6.544	0.099
606.700	5.420	0.099
606.800	-2.307	0.099
606.900	1.332	0.099
607.000	6.031	0.099
607.100	3.540	0.099
607.200	-3.518	0.099
607.300	-7.073	0.099
607.400	15.598	0.099
607.500	1.813	0.099
607.600	8.470	0.099
607.700	0.313	0.099
607.800	-0.041	0.099
607.900	-15.873	0.099
608.000	-8.539	0.099
608.100	15.239	0.099
608.200	5.607	0.099
608.300	-2.518	0.099
608.400	10.346	0.099
608.500	-1.856	0.099
608.600	-3.016	0.099
608.700	5.793	0.099
608.800	3.199	0.099
608.900	-10.146	0.099
609.000	1.696	0.099
609.100	-0.463	0.099
609.200	13.313	0.099
609.300	1.849	0.099
609.400	0.079	0.099
609.500	1.600	0.099
609.600	7.866	0.099
609.700	1.298	0.099
609.800	-1.603	0.099
609.900	6.887	0.099
610.000	-7.943	0.099
610.100	9.120	0.099
610.200	1.196	0.099
610.300	-13.324	0.099
610.400	-2.188	0.099
610.500	2.653	0.099
610.600	4.380	0.099
610.700	9.175	0.099
610.800	15.849	0.099
610.900	-4.259	0.099
611.000	-1.296	0.099
611.100	-0.091	0.099
611.200	6.408	0.099
611.300	1.749	0.099
611.400	2.835	0.099
611.500	3.753	0.099
611.600	-4.068	0.099
611.700	0.115	0.099
611.800	-1.385	0.099
611.900	2.360	0.099
612.000	2.583	0.099
612.100	27.156	0.099
612.200	-8.048	0.099
612.300	1.925	0.099
612.400	8.339	0.099
612.500	-10.699	0.099
612.600	0.559	0.099
612.700	-6.229	0.099
612.800	8.017	0.099
612.900	5.263	0.099
613.000	0.305	0.099
613.100	5.743	0.099
613.200	-8.908	0.099
613.300	-0.996	0.099
613.400	9.820	0.099
613.500	7.517	0.099
613.600	-8.645	0.099
613.700	4.212	0.099
613.800	9.032	0.099
613.900	-8.367	0.099
614.000	2.340	0.099
614.100	-1.827	0.099
614.200	-0.677	0.099
614.300	7.915	0.099
614.400	-3.355	0.099
614.500	5.355	0.099
614.600	-2.215	0.099
614.700	0.817	0.099
614.800	14.367	0.099
614.900	-2.016	0.099
615.000	-3.582	0.099
615.100	15.606	0.099
615.200	9.671	0.099
615.300	0.483	0.099
615.400	-6.322	0.099
615.500	7.721	0.099
615.600	1.305	0.099
615.700	-3.887	0.099
615.800	3.190	0.099
615.900	-2.626	0.099
616.000	-0.896	0.099
616.100	6.042	0.099
616.200	1.412	0.099
616.300	4.185	0.099
616.400	-10.512	0.099
616.500	18.848	0.099
616.600	8.244	0.099
616.700	5.943	0.099
616.800	9.804	0.099
616.900	-1.050	0.099
617.000	3.403	0.099
617.100	8.801	0.099
617.200	-0.685	0.099
617.300	11.345	0.099
617.400	-1.079	0.099
617.500	3.169	0.099
617.600	1.099	0.099
617.700	4.376	0.099
617.800	-1.796	0.099
617.900	-1.107	0.099
618.000	9.701	0.099
618.100	7.017	0.099
618.200	4.170	0.099
618.300	-2.083	0.099
618.400	-8.252	0.099
618.500	1.607	0.099
618.600	5.119	0.099
618.700	1.719	0.099
618.800	9.525	0.099
618.900	-2.907	0.099
619.000	6.898	0.099
619.100	2.569	0.099
619.200	6.684	0.099
619.300	4.938	0.099
619.400	-3.452	0.099
619.500	-8.629	0.100
619.600	9.455	0.099
619.700	-1.973	0.100
619.800	3.360	0.100
619.900	5.334	0.100
620.000	-10.082	0.100
620.100	-6.081	0.100
620.200	5.255	0.100
620.300	9.416	0.100
620.400	-2.977	0.100
620.500	11.288	0.100
620.600	-7.410	0.100
620.700	2.479	0.100
620.800	-0.804	0.100
620.900	3.676	0.100
621.000	-0.918	0.100
621.100	-2.886	0.100
621.200	1.698	0.100
621.300	-2.271	0.100
621.400	19.128	0.100
621.500	-6.776	0.100
621.600	13.745	0.100
621.700	-13.174	0.100
621.800	13.578	0.100
621.900	-3.341	0.100
622.000	5.990	0.100
622.100	6.244	0.100
622.200	7.904	0.100
622.300	3.371	0.100
622.400	-9.052	0.100
622.500	-4.982	0.100
622.600	5.675	0.100
622.700	13.374	0.100
622.800	2.125	0.100
622.900	10.974	0.100
623.000	6.375	0.100
623.100	-1.984	0.100
623.200	-12.737	0.100
623.300	1.109	0.100
623.400	2.742	0.100
623.500	5.680	0.100
623.600	-0.217	0.100
623.700	21.472	0.100
623.800	-5.247	0.100
623.900	-5.498	0.100
624.000	-0.962	0.100
624.100	-1.841	0.100
624.200	3.877	0.100
624.300	8.971	0.100
624.400	10.938	0.100
624.500	-12.409	0.100
624.600	-3.524	0.100
624.700	4.043	0.100
624.800	-7.756	0.100
624.900	5.662	0.100
625.000	-1.384	0.100
625.100	14.385	0.099
625.200	7.358	0.099
625.300	-8.155	0.099
625.400	5.466	0.099
625.500	5.769	0.099
625.600	2.278	0.099
625.700	-1.709	0.099
625.800	1.887	0.099
625.900	-1.892	0.099
626.000	-0.560	0.099
626.100	9.238	0.099
626.200	4.781	0.099
626.300	3.471	0.099
626.400	8.397	0.099
626.500	-5.367	0.099
626.600	7.297	0.099
626.700	4.252	0.099
626.800	4.990	0.099
626.900	-3.229	0.099
627.000	-1.900	0.099
627.100	9.694	0.099
627.200	-15.723	0.099
627.300	10.900	0.099
627.400	7.228	0.099
627.500	-11.207	0.099
627.600	12.522	0.099
627.700	-0.339	0.099
627.800	-11.668	0.099
627.900	8.650	0.099
628.000	8.859	0.099
628.100	8.467	0.099
628.200	-1.001	0.099
628.300	0.568	0.099
628.400	-6.130	0.099
628.500	3.026	0.099
628.600	10.314	0.099
628.700	6.311	0.099
628.800	6.604	0.099
628.900	-6.846	0.099
629.000	-1.340	0.099
629.100	-9.288	0.099
629.200	1.033	0.099
629.300	17.186	0.099
629.400	6.216	0.099
629.500	15.569	0.099
629.600	1.161	0.099
629.700	4.327	0.099
629.800	3.108	0.099
629.900	9.275	0.099
630.000	9.834	0.099
630.100	3.547	0.099
630.200	-22.124	0.099
630.300	0.362	0.099
630.400	13.025	0.099
630.500	5.153	0.099
630.600	5.386	0.099
630.700	1.871	0.099
630.800	1.680	0.099
630.900	2.242	0.099
631.000	2.386	0.099
631.100	0.972	0.099
631.200	8.963	0.099
631.300	13.993	0.099
631.400	2.266	0.099
631.500	8.799	0.099
631.600	14.305	0.099
631.700	0.407	0.099
631.800	-3.067	0.099
631.900	-3.571	0.099
632.000	12.594	0.099
632.100	8.711	0.099
632.200	3.011	0.099
632.300	11.382	0.099
632.400	-4.618	0.099
632.500	6.140	0.099
632.600	7.053	0.099
632.700	2.045	0.099
632.800	4.464	0.099
632.900	-9.027	0.099
633.000	-7.781	0.099
633.100	5.952	0.099
633.200	10.239	0.099
633.300	8.079	0.099
633.400	17.385	0.099
633.500	13.679	0.099
633.600	9.965	0.099
633.700	8.074	0.099
633.800	3.606	0.099
633.900	-8.161	0.099
634.000	2.905	0.099
634.100	4.619	0.099
634.200	-8.647	0.099
634.300	-2.029	0.099
634.400	11.027	0.099
634.500	11.651	0.099
634.600	9.932	0.099
634.700	4.055	0.099
634.800	-3.372	0.099
634.900	1.172	0.099
635.000	2.324	0.099
635.100	6.260	0.099
635.200	11.552	0.099
635.300	15.803	0.099
635.400	-13.087	0.099
635.500	3.243	0.099
635.600	7.935	0.099
635.700	7.348	0.099
635.800	-0.834	0.099
635.900	-0.452	0.099
636.000	4.684	0.099
636.100	2.595	0.099
636.200	3.473	0.099
636.300	12.145	0.099
636.400	-4.176	0.099
636.500	11.706	0.099
636.600	-0.294	0.099
636.700	11.851	0.099
636.800	-9.144	0.099
636.900	11.983	0.099
637.000	11.971	0.099
637.100	0.999	0.099
637.200	10.895	0.099
637.300	1.639	0.099
637.400	4.409	0.099
637.500	4.768	0.099
637.600	9.536	0.099
637.700	0.423	0.099
637.800	1.072	0.099
637.900	7.529	0.099
638.000	6.805	0.099
638.100	-3.474	0.099
638.200	9.033	0.099
638.300	-7.859	0.099
638.400	0.843	0.099
638.500	-8.928	0.099
638.600	7.676	0.099
638.700	11.801	0.099
638.800	1.514	0.099
638.900	9.602	0.099
639.000	-5.620	0.099
639.100	0.480	0.099
639.200	2.255	0.099
639.300	2.208	0.099
639.400	-2.674	0.099
639.500	-2.159	0.099
639.600	9.680	0.099
639.700	1.569	0.099
639.800	2.502	0.099
639.900	6.184	0.099
640.000	14.458	0.099
640.100	2.148	0.099
640.200	-3.511	0.099
640.300	0.083	0.099
640.400	-0.451	0.099
640.500	5.339	0.099
640.600	-8.691	0.099
640.700	1.627	0.099
640.800	-4.631	0.099
640.900	8.864	0.099
641.000	13.124	0.099
641.100	8.342	0.099
641.200	0.295	0.099
641.300	1.857	0.099
641.400	-1.951	0.099
641.500	-1.493	0.099
641.600	9.638	0.099
641.700	3.108	0.099
641.800	2.776	0.099
641.900	22.890	0.099
642.000	8.328	0.099
642.100	-2.528	0.099
642.200	-3.794	0.099
642.300	10.624	0.100
642.400	8.029	0.100
642.500	2.027	0.100
642.600	-1.286	0.100
642.700	0.676	0.100
642.800	-1.937	0.099
642.900	3.549	0.100
643.000	7.922	0.100
643.100	14.840	0.100
643.200	-3.778	0.099
643.300	5.033	0.100
643.400	-0.804	0.100
643.500	14.702	0.100
643.600	-0.352	0.100
643.700	1.070	0.100
643.800	0.487	0.100
643.900	1.684	0.100
644.000	-0.423	0.100
644.100	-0.821	0.099
644.200	17.144	0.100
644.300	3.562	0.100
644.400	-10.374	0.099
644.500	-2.825	0.099
644.600	0.255	0.100
644.700	5.803	0.100
644.800	16.231	0.100
644.900	-13.980	0.099
645.000	4.695	0.100
645.100	4.458	0.100
645.200	-8.631	0.099
645.300	4.236	0.100
645.400	10.958	0.100
645.500	-6.954	0.099
645.600	15.433	0.100
645.700	-10.209	0.099
645.800	7.196	0.100
645.900	-3.071	0.099
646.000	1.565	0.099
646.100	9.353	0.100
646.200	1.743	0.100
646.300	-4.712	0.099
646.400	-0.599	0.099
646.500	-4.010	0.099
646.600	6.308	0.100
646.700	0.552	0.100
646.800	21.790	0.100
646.900	-0.915	0.099
647.000	1.341	0.099
647.100	11.756	0.100
647.200	8.287	0.100
647.300	10.024	0.100
647.400	-6.855	0.099
647.500	6.450	0.100
647.600	4.661	0.100
647.700	4.313	0.100
647.800	10.130	0.100
647.900	3.074	0.100
648.000	-7.096	0.099
648.100	7.847	0.100
648.200	-0.290	0.100
648.300	0.665	0.100
648.400	7.865	0.100
648.500	4.329	0.100
648.600	-9.016	0.100
648.700	7.559	0.100
648.800	6.501	0.100
648.900	18.413	0.100
649.000	5.572	0.100
649.100	0.916	0.100
649.200	6.156	0.100
649.300	-1.174	0.100
649.400	4.322	0.100
649.500	-2.234	0.099
649.600	-3.771	0.100
649.700	2.170	0.100
649.800	7.488	0.100
649.900	1.558	0.100
650.000	1.282	0.100
650.100	-0.673	0.100
650.200	8.347	0.100
650.300	4.539	0.100
650.400	7.967	0.100
650.500	-2.342	0.100
650.600	-8.364	0.100
650.700	5.930	0.100
650.800	4.118	0.100
650.900	7.702	0.100
651.000	-1.082	0.100
651.100	2.539	0.100
651.200	2.789	0.100
651.300	-6.967	0.100
651.400	-0.243	0.100
651.500	11.508	0.100
651.600	-1.039	0.100
651.700	6.465	0.100
651.800	-0.520	0.100
651.900	-8.839	0.099
652.000	5.913	0.100
652.100	-1.246	0.100
652.200	6.535	0.100
652.300	-1.752	0.100
652.400	2.436	0.100
652.500	5.313	0.100
652.600	-5.149	0.099
652.700	-1.593	0.100
652.800	-3.918	0.100
652.900	5.426	0.100
653.000	2.963	0.099
653.100	1.095	0.099
653.200	-16.743	0.099
653.300	29.876	0.099
653.400	12.390	0.099
653.500	3.216	0.099
653.600	-0.280	0.099
653.700	5.360	0.099
653.800	8.188	0.099
653.900	4.567	0.099
654.000	-1.777	0.099
654.100	2.936	0.099
654.200	-11.273	0.099
654.300	5.186	0.099
654.400	9.730	0.099
654.500	0.526	0.099
654.600	4.167	0.099
654.700	4.845	0.099
654.800	11.172	0.099
654.900	0.192	0.099
655.000	1.454	0.099
655.100	-14.290	0.099
655.200	-4.756	0.099
655.300	9.093	0.099
655.400	-2.797	0.099
655.500	-4.844	0.099
655.600	-2.827	0.099
655.700	4.167	0.099
655.800	8.899	0.099
655.900	1.319	0.099
656.000	7.773	0.099
656.100	6.667	0.099
656.200	0.717	0.099
656.300	3.308	0.099
656.400	-9.460	0.099
656.500	1.353	0.099
656.600	30.758	0.099
656.700	2.278	0.099
656.800	-6.119	0.099
656.900	5.076	0.099
657.000	18.914	0.099
657.100	-0.397	0.099
657.200	6.907	0.099
657.300	-3.652	0.099
657.400	1.015	0.099
657.500	6.830	0.099
657.600	5.386	0.099
657.700	11.927	0.099
657.800	-0.053	0.099
657.900	8.923	0.099
658.000	-3.998	0.099
658.100	11.553	0.099
658.200	10.825	0.099
658.300	-7.075	0.099
658.400	10.027	0.099
658.500	0.482	0.099
658.600	3.562	0.099
658.700	-6.195	0.099
658.800	16.365	0.099
658.900	0.779	0.099
659.000	-0.242	0.099
659.100	9.772	0.099
659.200	9.437	0.099
659.300	7.340	0.099
659.400	-1.505	0.099
659.500	-9.122	0.099
659.600	7.106	0.099
659.700	-18.041	0.099
659.800	15.146	0.099
659.900	-3.905	0.099
660.000	5.082	0.099
660.100	2.691	0.099
660.200	-3.541	0.099
660.300	6.352	0.099
660.400	7.683	0.099
660.500	-14.217	0.099
660.600	6.239	0.099
660.700	-9.917	0.099
660.800	1.428	0.099
660.900	20.103	0.099
661.000	3.755	0.099
661.100	-4.148	0.099
661.200	9.238	0.099
661.300	8.062	0.099
661.400	2.337	0.099
661.500	0.552	0.099
661.600	-12.986	0.099
661.700	8.209	0.099
661.800	13.767	0.099
661.900	1.050	0.099
662.000	5.332	0.099
662.100	6.606	0.099
662.200	9.965	0.099
662.300	0.188	0.099
662.400	-8.098	0.099
662.500	3.295	0.099
662.600	7.457	0.099
662.700	-1.555	0.099
662.800	-1.292	0.099
662.900	5.625	0.099
663.000	2.675	0.099
663.100	5.425	0.099
663.200	-16.655	0.099
663.300	-1.086	0.099
663.400	7.335	0.099
663.500	-6.577	0.099
663.600	7.668	0.099
663.700	3.115	0.099
663.800	3.102	0.099
663.900	13.931	0.099
664.000	-3.467	0.099
664.100	1.878	0.099
664.200	1.128	0.099
664.300	2.700	0.099
664.400	3.303	0.099
664.500	9.322	0.099
664.600	6.836	0.099
664.700	9.400	0.099
664.800	3.203	0.099
664.900	9.031	0.099
665.000	4.149	0.099
665.100	-0.712	0.099
665.200	-7.804	0.099
665.300	11.074	0.099
665.400	-0.311	0.099
665.500	-6.092	0.099
665.600	16.541	0.099
665.700	6.052	0.099
665.800	12.068	0.099
665.900	-0.778	0.099
666.000	-14.990	0.099
666.100	-3.617	0.099
666.200	15.938	0.099
666.300	6.008	0.099
666.400	-7.790	0.099
666.500	-3.911	0.099
666.600	6.440	0.099
666.700	-0.233	0.099
666.800	-5.209	0.099
666.900	3.908	0.099
667.000	7.514	0.099
667.100	-7.120	0.099
667.200	3.110	0.099
667.300	-5.517	0.099
667.400	2.315	0.099
667.500	12.456	0.099
667.600	-2.795	0.099
667.700	9.573	0.099
667.800	3.485	0.099
667.900	7.480	0.099
668.000	-3.518	0.099
668.100	4.257	0.099
668.200	-0.347	0.099
668.300	-2.068	0.099
668.400	0.825	0.099
668.500	2.460	0.099
668.600	-2.482	0.099
668.700	11.000	0.099
668.800	-4.938	0.099
668.900	-18.247	0.099
669.000	3.741	0.099
669.100	-1.011	0.099
669.200	6.778	0.099
669.300	5.126	0.099
669.400	6.188	0.099
669.500	3.678	0.099
669.600	7.403	0.099
669.700	-2.028	0.099
669.800	-3.243	0.099
669.900	13.218	0.099
670.000	-10.542	0.099
670.100	5.612	0.099
670.200	3.944	0.099
670.300	7.273	0.099
670.400	-11.834	0.099
670.500	23.649	0.099
670.600	-4.904	0.099
670.700	-1.593	0.099
670.800	-5.153	0.100
670.900	-2.823	0.099
671.000	1.865	0.099
671.100	14.413	0.100
671.200	6.190	0.099
671.300	20.721	0.099
671.400	-5.110	0.099
671.500	0.008	0.099
671.600	-7.398	0.099
671.700	2.001	0.099
671.800	-6.763	0.099
671.900	8.200	0.099
672.000	-2.843	0.099
672.100	5.707	0.099
672.200	-3.914	0.099
672.300	18.245	0.100
672.400	7.798	0.100
672.500	5.749	0.099
672.600	-6.413	0.099
672.700	6.704	0.100
672.800	-4.088	0.100
672.900	-6.261	0.100
673.000	0.920	0.100
673.100	7.626	0.100
673.200	5.679	0.100
673.300	13.193	0.100
673.400	-8.367	0.100
673.500	10.173	0.100
673.600	-15.595	0.100
673.700	6.104	0.100
673.800	0.044	0.100
673.900	6.871	0.100
674.000	-4.350	0.100
674.100	5.810	0.100
674.200	1.446	0.100
674.300	0.032	0.100
674.400	-4.088	0.100
674.500	-2.791	0.100
674.600	3.445	0.100
674.700	8.776	0.100
674.800	4.134	0.100
674.900	2.503	0.100
675.000	8.446	0.100
675.100	-9.990	0.100
675.200	23.849	0.100
675.300	-12.550	0.100
675.400	13.156	0.100
675.500	3.029	0.100
675.600	1.793	0.100
675.700	0.782	0.100
675.800	10.467	0.100
675.900	6.448	0.100
676.000	4.389	0.100
676.100	4.254	0.100
676.200	-2.776	0.100
676.300	4.699	0.100
676.400	5.568	0.100
676.500	-5.321	0.100
676.600	0.460	0.100
676.700	-0.163	0.100
676.800	9.153	0.100
676.900	-4.339	0.100
677.000	5.684	0.100
677.100	7.388	0.100
677.200	6.145	0.100
677.300	0.321	0.100
677.400	4.742	0.100
677.500	3.718	0.100
677.600	0.902	0.100
677.700	2.556	0.100
677.800	-5.582	0.100
677.900	1.851	0.100
678.000	4.796	0.100
678.100	-2.700	0.100
678.200	10.332	0.100
678.300	11.115	0.100
678.400	1.831	0.100
678.500	7.543	0.100
678.600	4.143	0.100
678.700	7.825	0.100
678.800	12.519	0.100
678.900	-2.947	0.100
679.000	7.770	0.100
679.100	3.024	0.100
679.200	4.114	0.100
679.300	-11.923	0.100
679.400	18.216	0.100
679.500	3.995	0.100
679.600	-12.676	0.100
679.700	11.015	0.100
679.800	-5.296	0.100
679.900	-0.504	0.100
680.000	-1.220	0.100
680.100	0.541	0.100
680.200	3.719	0.100
680.300	4.352	0.100
680.400	-5.248	0.100
680.500	8.107	0.100
680.600	-2.637	0.100
680.700	-5.507	0.100
680.800	5.712	0.100
680.900	10.239	0.100
681.000	5.976	0.100
681.100	-0.938	0.100
681.200	-0.511	0.100
681.300	7.310	0.100
681.400	5.513	0.100
681.500	-2.341	0.100
681.600	9.830	0.100
681.700	-11.567	0.100
681.800	6.191	0.100
681.900	1.586	0.100
682.000	24.341	0.100
682.100	-2.434	0.100
682.200	17.688	0.100
682.300	-0.175	0.100
682.400	-4.239	0.100
682.500	2.810	0.100
682.600	2.585	0.100
682.700	-3.249	0.100
682.800	-9.771	0.100
682.900	8.807	0.100
683.000	6.639	0.100
683.100	-1.975	0.100
683.200	3.152	0.100
683.300	19.067	0.100
683.400	6.387	0.100
683.500	0.464	0.100
683.600	-0.621	0.100
683.700	21.177	0.100
683.800	10.702	0.100
683.900	10.410	0.100
684.000	-6.392	0.100
684.100	2.274	0.100
684.200	-1.505	0.100
684.300	-13.287	0.100
684.400	12.098	0.100
684.500	6.344	0.100
684.600	-7.357	0.100
684.700	-1.106	0.100
684.800	6.966	0.100
684.900	1.173	0.100
685.000	2.068	0.100
685.100	2.739	0.100
685.200	1.717	0.100
685.300	2.755	0.100
685.400	2.886	0.100
685.500	-0.501	0.100
685.600	-11.025	0.100
685.700	4.284	0.100
685.800	-2.589	0.100
685.900	8.279	0.100
686.000	-6.603	0.100
686.100	-6.821	0.100
686.200	8.079	0.100
686.300	15.323	0.100
686.400	-11.010	0.100
686.500	-0.037	0.100
686.600	9.633	0.100
686.700	-1.835	0.100
686.800	5.524	0.100
686.900	0.994	0.100
687.000	9.010	0.100
687.100	11.340	0.100
687.200	5.024	0.100
687.300	9.053	0.100
687.400	-11.255	0.100
687.500	10.531	0.100
687.600	-9.718	0.100
687.700	0.278	0.100
687.800	-13.837	0.100
687.900	15.702	0.100
688.000	2.696	0.100
688.100	-3.671	0.100
688.200	5.493	0.100
688.300	14.888	0.100
688.400	0.464	0.100
688.500	-4.992	0.100
688.600	14.319	0.100
688.700	-3.924	0.100
688.800	15.197	0.100
688.900	4.505	0.100
689.000	10.738	0.100
689.100	2.464	0.100
689.200	1.209	0.100
689.300	15.416	0.100
689.400	-9.315	0.100
689.500	-9.458	0.100
689.600	21.952	0.100
689.700	2.883	0.100
689.800	8.677	0.100
689.900	-0.015	0.100
690.000	0.713	0.100
690.100	-9.739	0.100
690.200	14.541	0.100
690.300	3.506	0.100
690.400	4.805	0.100
690.500	-2.295	0.100
690.600	9.030	0.100
690.700	-1.854	0.100
690.800	4.286	0.100
690.900	10.873	0.100
691.000	-4.613	0.100
691.100	5.029	0.100
691.200	-6.126	0.100
691.300	7.282	0.100
691.400	7.418	0.100
691.500	-1.707	0.100
691.600	-5.066	0.100
691.700	-6.627	0.100
691.800	2.033	0.100
691.900	-4.862	0.100
692.000	9.872	0.100
692.100	4.199	0.100
692.200	3.337	0.100
692.300	0.714	0.100
692.400	8.507	0.100
692.500	-6.537	0.100
692.600	1.297	0.100
692.700	4.671	0.100
692.800	-7.184	0.100
692.900	8.461	0.100
693.000	4.518	0.100
693.100	4.363	0.100
693.200	-3.011	0.100
693.300	-1.854	0.100
693.400	4.598	0.100
693.500	-8.357	0.100
693.600	-2.099	0.100
693.700	-0.747	0.100
693.800	5.988	0.100
693.900	-0.550	0.100
694.000	-9.684	0.100
694.100	-9.427	0.100
694.200	-6.198	0.100
694.300	3.780	0.100
694.400	11.944	0.100
694.500	7.237	0.100
694.600	-2.541	0.100
694.700	4.827	0.100
694.800	-8.371	0.100
694.900	-4.772	0.100
695.000	2.795	0.100
695.100	-1.801	0.100
695.200	-2.827	0.100
695.300	-1.424	0.100
695.400	6.936	0.100
695.500	1.336	0.100
695.600	2.926	0.100
695.700	-3.825	0.100
695.800	5.974	0.100
695.900	-6.037	0.099
696.000	-2.409	0.100
696.100	-1.410	0.100
696.200	11.280	0.100
696.300	9.893	0.099
696.400	3.768	0.099
696.500	9.344	0.100
696.600	-2.617	0.099
696.700	-5.102	0.099
696.800	-14.110	0.099
696.900	6.109	0.099
697.000	-4.213	0.099
697.100	-9.575	0.099
697.200	5.588	0.099
697.300	-2.269	0.100
697.400	4.804	0.099
697.500	10.111	0.099
697.600	-1.781	0.099
697.700	0.954	0.099
697.800	3.285	0.100
697.900	2.226	0.099
698.000	3.112	0.100
698.100	0.788	0.100
698.200	-1.811	0.100
698.300	1.247	0.100
698.400	-0.156	0.100
698.500	7.879	0.100
698.600	-1.405	0.100
698.700	-11.383	0.100
698.800	8.988	0.100
698.900	2.175	0.100
699.000	11.231	0.100
699.100	-10.123	0.100
699.200	-11.693	0.100
699.300	4.426	0.100
699.400	0.551	0.100
699.500	-4.164	0.100
699.600	-8.193	0.100
699.700	4.324	0.100
699.800	0.610	0.100
699.900	-1.760	0.100
700.000	-13.509	0.100
700.100	12.398	0.100
700.200	-0.931	0.100
700.300	8.294	0.100
700.400	1.414	0.100
700.500	-5.258	0.100
700.600	1.625	0.100
700.700	3.033	0.100
700.800	0.937	0.100
700.900	-2.369	0.100
701.000	1.810	0.100
701.100	1.713	0.100
701.200	-6.168	0.100
701.300	1.029	0.100
701.400	-2.294	0.100
701.500	5.784	0.100
701.600	10.613	0.100
701.700	-1.417	0.100
701.800	-1.977	0.100
701.900	-14.826	0.100
702.000	13.452	0.100
702.100	-8.250	0.100
702.200	-4.713	0.100
702.300	6.410	0.100
702.400	4.879	0.100
702.500	-9.909	0.100
702.600	5.894	0.100
702.700	4.029	0.100
702.800	7.641	0.100
702.900	9.098	0.100
703.000	5.381	0.100
703.100	-7.590	0.100
703.200	11.263	0.100
703.300	-3.425	0.100
703.400	-1.858	0.100
703.500	0.261	0.100
703.600	6.525	0.100
703.700	-3.537	0.100
703.800	-4.278	0.100
703.900	11.996	0.100
704.000	-6.065	0.100
704.100	-3.752	0.100
704.200	4.423	0.100
704.300	-1.119	0.100
704.400	1.481	0.100
704.500	-4.092	0.100
704.600	-9.397	0.100
704.700	14.133	0.100
704.800	5.246	0.100
704.900	-3.903	0.100
705.000	-7.877	0.100
705.100	3.931	0.100
705.200	-5.876	0.100
705.300	-0.353	0.100
705.400	-1.332	0.100
705.500	6.187	0.100
705.600	-2.242	0.100
705.700	-7.733	0.100
705.800	20.414	0.100
705.900	-16.127	0.100
706.000	6.590	0.100
706.100	9.579	0.100
706.200	5.757	0.100
706.300	12.825	0.100
706.400	0.186	0.100
706.500	4.601	0.100
706.600	-12.355	0.100
706.700	-8.094	0.100
706.800	17.638	0.100
706.900	-1.720	0.100
707.000	-3.478	0.100
707.100	4.835	0.100
707.200	10.193	0.100
707.300	8.467	0.100
707.400	3.179	0.100
707.500	-6.820	0.100
707.600	-2.340	0.100
707.700	10.551	0.100
707.800	-2.765	0.100
707.900	-0.161	0.100
708.000	-1.328	0.100
708.100	-4.539	0.100
708.200	2.835	0.100
708.300	3.610	0.100
708.400	1.868	0.100
708.500	6.624	0.100
708.600	-4.707	0.100
708.700	11.087	0.100
708.800	-0.264	0.100
708.900	-3.914	0.100
709.000	20.858	0.100
709.100	1.577	0.100
709.200	-15.588	0.100
709.300	9.919	0.100
709.400	1.697	0.100
709.500	-0.889	0.100
709.600	-8.631	0.100
709.700	-5.659	0.100
709.800	2.332	0.100
709.900	-6.786	0.100
710.000	-10.670	0.100
710.100	-0.955	0.100
710.200	-4.314	0.100
710.300	13.178	0.100
710.400	5.625	0.100
710.500	-0.802	0.100
710.600	5.671	0.100
710.700	4.176	0.100
710.800	14.195	0.100
710.900	-0.567	0.100
711.000	7.510	0.100
711.100	5.766	0.100
711.200	-3.128	0.100
711.300	5.893	0.100
711.400	1.523	0.100
711.500	8.108	0.100
711.600	-16.518	0.100
711.700	3.589	0.100
711.800	7.487	0.100
711.900	11.587	0.100
712.000	1.644	0.100
712.100	2.530	0.100
712.200	-3.563	0.100
712.300	0.639	0.100
712.400	-1.720	0.100
712.500	15.720	0.100
712.600	12.100	0.100
712.700	4.163	0.100
712.800	-6.694	0.100
712.900	-2.543	0.100
713.000	-3.091	0.100
713.100	-12.298	0.100
713.200	0.640	0.100
713.300	8.346	0.100
713.400	3.802	0.100
713.500	0.631	0.100
713.600	-13.660	0.100
713.700	4.841	0.100
713.800	2.033	0.100
713.900	-6.450	0.100
714.000	8.869	0.100
714.100	-6.867	0.100
714.200	4.132	0.100
714.300	-10.352	0.100
714.400	0.826	0.100
714.500	-4.751	0.100
714.600	5.534	0.100
714.700	1.303	0.100
714.800	13.630	0.100
714.900	-1.856	0.100
715.000	-5.603	0.100
715.100	-8.609	0.100
715.200	-10.946	0.100
715.300	7.254	0.100
715.400	-1.923	0.100
715.500	-12.075	0.100
715.600	-6.038	0.100
715.700	5.068	0.100
715.800	4.296	0.100
715.900	9.276	0.100
716.000	-7.670	0.100
716.100	-4.660	0.100
716.200	4.731	0.100
716.300	13.390	0.100
716.400	-10.388	0.100
716.500	-5.692	0.100
716.600	-3.425	0.100
716.700	4.667	0.100
716.800	4.820	0.100
716.900	-5.244	0.100
717.000	10.958	0.100
717.100	5.021	0.100
717.200	1.700	0.100
717.300	8.946	0.100
717.400	4.292	0.100
717.500	-5.377	0.100
717.600	9.168	0.100
717.700	-19.917	0.100
717.800	-8.068	0.100
717.900	-1.905	0.100
718.000	8.847	0.100
718.100	-3.105	0.100
718.200	5.050	0.100
718.300	-1.205	0.100
718.400	-5.431	0.100
718.500	-1.941	0.100
718.600	4.920	0.100
718.700	-2.911	0.100
718.800	3.853	0.100
718.900	6.141	0.100
719.000	-1.000	0.100
719.100	1.930	0.100
719.200	9.889	0.100
719.300	-3.634	0.100
719.400	19.496	0.100
719.500	-14.265	0.100
719.600	-3.112	0.100
719.700	5.873	0.100
719.800	-9.054	0.100
719.900	7.516	0.100
720.000	-7.374	0.100
720.100	5.983	0.100
720.200	7.279	0.100
720.300	5.463	0.100
720.400	-6.237	0.100
720.500	9.808	0.100
720.600	0.613	0.100
720.700	-9.183	0.100
720.800	4.887	0.100
720.900	-3.687	0.100
721.000	4.246	0.100
721.100	10.410	0.100
721.200	-1.466	0.100
721.300	2.077	0.100
721.400	-4.810	0.100
721.500	-4.161	0.100
721.600	11.290	0.100
721.700	7.454	0.100
721.800	4.577	0.100
721.900	6.812	0.100
722.000	-4.591	0.100
722.100	1.462	0.100
722.200	-5.317	0.100
722.300	-0.248	0.100
722.400	5.749	0.100
722.500	-3.553	0.100
722.600	9.977	0.100
722.700	2.541	0.100
722.800	-1.103	0.100
722.900	-4.986	0.100
723.000	-11.117	0.100
723.100	7.296	0.100
723.200	-11.594	0.100
723.300	7.009	0.100
723.400	0.168	0.100
723.500	-4.747	0.100
723.600	3.194	0.100
723.700	5.284	0.100
723.800	6.149	0.100
723.900	1.900	0.100
724.000	4.633	0.100
724.100	-2.094	0.100
724.200	11.144	0.100
724.300	-10.932	0.100
724.400	2.102	0.100
724.500	1.831	0.100
724.600	8.311	0.100
724.700	4.444	0.100
724.800	12.365	0.100
724.900	-0.103	0.100
725.000	-5.631	0.100
725.100	-6.476	0.100
725.200	-1.191	0.100
725.300	5.668	0.100
725.400	-4.239	0.100
725.500	-9.375	0.100
725.600	-10.931	0.100
725.700	3.286	0.100
725.800	14.626	0.100
725.900	-17.148	0.100
726.000	5.066	0.100
726.100	14.194	0.100
726.200	0.178	0.100
726.300	-2.532	0.100
726.400	-10.711	0.100
726.500	6.794	0.100
726.600	11.408	0.100
726.700	-3.147	0.100
726.800	6.463	0.100
726.900	2.156	0.100
727.000	-10.896	0.100
727.100	4.471	0.100
727.200	2.611	0.100
727.300	1.166	0.100
727.400	-23.864	0.100
727.500	8.104	0.100
727.600	16.093	0.100
727.700	-1.985	0.100
727.800	-3.069	0.100
727.900	-9.028	0.100
728.000	2.922	0.100
728.100	10.191	0.100
728.200	-0.993	0.100
728.300	5.039	0.100
728.400	-0.690	0.100
728.500	-1.328	0.100
728.600	0.069	0.100
728.700	8.665	0.100
728.800	-9.703	0.100
728.900	-2.537	0.100
729.000	-0.475	0.100
729.100	14.468	0.100
729.200	-0.176	0.100
729.300	-1.317	0.100
729.400	-4.137	0.100
729.500	7.376	0.100
729.600	-5.652	0.100
729.700	6.464	0.100
729.800	-5.002	0.100
729.900	-0.818	0.100
730.000	17.128	0.100
730.100	1.322	0.100
730.200	6.092	0.100
730.300	-9.342	0.100
730.400	-5.911	0.100
730.500	17.897	0.100
730.600	-2.115	0.100
730.700	-1.911	0.100
730.800	-8.145	0.100
730.900	14.884	0.100
731.000	-0.575	0.100
731.100	-8.289	0.100
731.200	-0.366	0.100
731.300	-6.923	0.100
731.400	5.071	0.100
731.500	8.175	0.100
731.600	3.541	0.100
731.700	-2.658	0.100
731.800	-1.791	0.100
731.900	-2.721	0.100
732.000	8.482	0.100
732.100	-0.538	0.100
732.200	10.099	0.100
732.300	9.757	0.100
732.400	-5.592	0.100
732.500	-12.104	0.100
732.600	9.566	0.100
732.700	-7.868	0.100
732.800	9.314	0.100
732.900	-0.528	0.100
733.000	-1.821	0.100
733.100	-4.663	0.100
733.200	3.066	0.100
733.300	2.681	0.100
733.400	-6.568	0.100
733.500	3.311	0.100
733.600	6.698	0.100
733.700	1.030	0.100
733.800	3.684	0.100
733.900	8.118	0.100
734.000	-2.374	0.100
734.100	6.130	0.100
734.200	-0.378	0.100
734.300	1.069	0.100
734.400	-1.268	0.100
734.500	9.276	0.100
734.600	-3.227	0.100
734.700	4.761	0.100
734.800	8.876	0.100
734.900	-9.388	0.100
735.000	6.884	0.100
735.100	13.272	0.100
735.200	5.024	0.100
735.300	1.010	0.100
735.400	2.565	0.100
735.500	-2.475	0.100
735.600	8.203	0.100
735.700	-3.225	0.100
735.800	5.773	0.100
735.900	11.968	0.100
736.000	-11.889	0.100
736.100	3.503	0.100
736.200	7.107	0.100
736.300	3.588	0.100
736.400	2.035	0.100
736.500	-1.083	0.100
736.600	0.602	0.100
736.700	5.215	0.100
736.800	13.158	0.100
736.900	-17.880	0.100
737.000	2.353	0.100
737.100	-6.887	0.100
737.200	9.934	0.100
737.300	5.467	0.100
737.400	-1.441	0.100
737.500	8.199	0.100
737.600	-0.945	0.100
737.700	14.757	0.100
737.800	7.344	0.100
737.900	-5.009	0.100
738.000	7.039	0.100
738.100	-0.466	0.100
738.200	12.670	0.100
738.300	-0.985	0.100
738.400	-8.748	0.100
738.500	8.984	0.100
738.600	-3.741	0.100
738.700	9.904	0.100
738.800	-4.468	0.100
738.900	-4.155	0.100
739.000	15.551	0.100
739.100	-8.855	0.100
739.200	9.655	0.100
739.300	-10.250	0.100
739.400	1.440	0.100
739.500	2.088	0.100
739.600	4.818	0.100
739.700	3.059	0.100
739.800	9.814	0.100
739.900	3.038	0.100
740.000	-1.506	0.100
740.100	-1.924	0.100
740.200	1.240	0.100
740.300	4.038	0.100
740.400	-3.134	0.100
740.500	-14.258	0.100
740.600	10.893	0.100
740.700	-8.526	0.100
740.800	16.221	0.100
740.900	4.796	0.100
741.000	7.686	0.100
741.100	-7.035	0.100
741.200	9.626	0.100
741.300	-1.938	0.100
741.400	6.212	0.100
741.500	8.427	0.100
741.600	-8.370	0.100
741.700	-8.769	0.100
741.800	-3.356	0.100
741.900	15.235	0.100
742.000	8.073	0.100
742.100	2.186	0.100
742.200	4.300	0.100
742.300	4.238	0.100
742.400	-3.344	0.100
742.500	15.879	0.100
742.600	2.553	0.100
742.700	2.689	0.100
742.800	7.642	0.100
742.900	-9.367	0.100
743.000	5.199	0.100
743.100	3.435	0.100
743.200	0.455	0.100
743.300	-3.969	0.100
743.400	0.332	0.100
743.500	12.285	0.100
743.600	1.623	0.100
743.700	5.098	0.100
743.800	3.745	0.100
743.900	-5.868	0.100
744.000	16.383	0.100
744.100	1.393	0.100
744.200	-9.698	0.100
744.300	-2.313	0.100
744.400	8.583	0.100
744.500	-4.661	0.100
744.600	13.247	0.100
744.700	23.081	0.100
744.800	0.856	0.100
744.900	-4.576	0.100
745.000	-3.606	0.100
745.100	10.766	0.100
745.200	-9.627	0.100
745.300	-8.223	0.100
745.400	11.786	0.100
745.500	-8.071	0.100
745.600	-3.706	0.100
745.700	9.317	0.100
745.800	6.420	0.100
745.900	-3.029	0.100
746.000	-5.310	0.100
746.100	-14.419	0.100
746.200	11.487	0.100
746.300	-2.534	0.100
746.400	-8.101	0.100
746.500	17.167	0.100
746.600	-1.020	0.100
746.700	-2.584	0.100
746.800	5.851	0.100
746.900	-4.255	0.100
747.000	-2.003	0.100
747.100	3.963	0.100
747.200	-0.332	0.100
747.300	-6.563	0.100
747.400	3.572	0.100
747.500	13.519	0.100
747.600	5.196	0.100
747.700	-2.463	0.100
747.800	-1.514	0.100
747.900	-5.245	0.100
748.000	4.196	0.100
748.100	-5.419	0.100
748.200	-23.792	0.100
748.300	7.486	0.100
748.400	7.078	0.100
748.500	1.792	0.100
748.600	-0.468	0.100
748.700	8.116	0.100
748.800	0.982	0.100
748.900	11.246	0.100
749.000	3.393	0.100
749.100	-10.456	0.100
749.200	-3.342	0.100
749.300	4.532	0.100
749.400	10.989	0.100
749.500	-13.605	0.100
749.600	16.470	0.100
749.700	-4.898	0.100
749.800	13.136	0.100
749.900	-3.502	0.100
750.000	-4.571	0.100
750.100	8.749	0.100
750.200	-4.048	0.100
750.300	3.588	0.100
750.400	-5.336	0.100
750.500	0.891	0.100
750.600	2.807	0.100
750.700	-9.564	0.100
750.800	-5.740	0.100
750.900	4.115	0.100
751.000	9.646	0.100
751.100	0.656	0.099
751.200	14.878	0.099
751.300	-3.437	0.099
751.400	-17.573	0.099
751.500	5.060	0.099
751.600	6.926	0.099
751.700	0.092	0.099
751.800	2.079	0.099
751.900	11.458	0.099
752.000	9.042	0.099
752.100	-0.443	0.099
752.200	6.086	0.099
752.300	9.566	0.099
752.400	-0.788	0.099
752.500	-13.469	0.099
752.600	3.492	0.099
752.700	-5.979	0.099
752.800	5.425	0.099
752.900	14.510	0.099
753.000	1.946	0.099
753.100	-4.057	0.099
753.200	-13.312	0.099
753.300	-4.010	0.099
753.400	-1.296	0.099
753.500	1.636	0.099
753.600	7.518	0.099
753.700	1.660	0.099
753.800	7.981	0.099
753.900	-5.818	0.099
754.000	-0.635	0.099
754.100	-9.516	0.099
754.200	3.933	0.099
754.300	-0.438	0.099
754.400	11.296	0.099
754.500	6.804	0.099
754.600	-8.731	0.099
754.700	20.163	0.099
754.800	-6.041	0.099
754.900	-3.916	0.099
755.000	9.109	0.099
755.100	-9.454	0.099
755.200	3.850	0.099
755.300	2.298	0.099
755.400	-3.124	0.099
755.500	1.952	0.099
755.600	3.824	0.099
755.700	-3.200	0.099
755.800	-4.496	0.099
755.900	5.027	0.099
756.000	-8.740	0.099
756.100	7.137	0.099
756.200	4.659	0.099
756.300	-1.372	0.099
756.400	9.924	0.099
756.500	-1.767	0.099
756.600	-2.925	0.099
756.700	15.112	0.099
756.800	-5.136	0.099
756.900	8.560	0.099
757.000	-6.891	0.099
757.100	15.739	0.099
757.200	1.796	0.099
757.300	-3.780	0.099
757.400	3.028	0.099
757.500	-0.399	0.099
757.600	2.557	0.099
757.700	4.086	0.099
757.800	-7.990	0.099
757.900	6.574	0.099
758.000	-7.707	0.099
758.100	3.713	0.099
758.200	1.268	0.099
758.300	-21.922	0.099
758.400	2.276	0.099
758.500	-1.280	0.099
758.600	11.829	0.099
758.700	9.187	0.099
758.800	-11.443	0.099
758.900	-8.019	0.099
759.000	15.181	0.099
759.100	-7.989	0.099
759.200	9.094	0.099
759.300	4.800	0.099
759.400	10.465	0.099
759.500	9.277	0.099
759.600	-8.638	0.099
759.700	2.218	0.099
759.800	4.819	0.099
759.900	7.033	0.099
760.000	-8.005	0.099
760.100	7.478	0.099
760.200	8.526	0.099
760.300	1.193	0.099
760.400	-13.049	0.099
760.500	4.047	0.099
760.600	6.921	0.099
760.700	-4.091	0.099
760.800	24.453	0.099
760.900	-1.592	0.099
761.000	9.001	0.099
761.100	-12.029	0.099
761.200	5.828	0.099
761.300	1.423	0.099
761.400	-1.217	0.099
761.500	-6.632	0.099
761.600	3.210	0.099
761.700	17.137	0.099
761.800	2.967	0.099
761.900	-5.163	0.099
762.000	0.595	0.099
762.100	2.441	0.099
762.200	-9.960	0.099
762.300	-1.830	0.099
762.400	-17.824	0.099
762.500	2.996	0.099
762.600	-0.522	0.099
762.700	-3.613	0.099
762.800	9.570	0.099
762.900	16.974	0.099
763.000	-1.023	0.099
763.100	1.350	0.099
763.200	-0.562	0.099
763.300	7.249	0.099
763.400	-0.299	0.099
763.500	4.195	0.099
763.600	-5.132	0.099
763.700	2.141	0.099
763.800	-16.339	0.099
763.900	16.513	0.099
764.000	3.593	0.099
764.100	3.524	0.099
764.200	7.853	0.099
764.300	3.854	0.099
764.400	-1.258	0.099
764.500	-5.110	0.099
764.600	-7.014	0.099
764.700	6.408	0.099
764.800	6.153	0.099
764.900	5.005	0.099
765.000	8.192	0.099
765.100	-13.610	0.099
765.200	6.007	0.099
765.300	6.685	0.099
765.400	-9.883	0.099
765.500	-1.972	0.099
765.600	-6.399	0.099
765.700	6.532	0.099
765.800	-2.233	0.099
765.900	3.354	0.099
766.000	10.091	0.099
766.100	3.258	0.099
766.200	-0.075	0.099
766.300	12.214	0.099
766.400	-6.936	0.099
766.500	-4.362	0.099
766.600	-0.802	0.099
766.700	12.042	0.099
766.800	-3.051	0.099
766.900	-5.226	0.099
767.000	-8.608	0.099
767.100	7.280	0.099
767.200	2.278	0.099
767.300	5.584	0.099
767.400	-5.806	0.099
767.500	-1.373	0.099
767.600	8.632	0.099
767.700	-10.318	0.099
767.800	0.324	0.099
767.900	3.761	0.099
768.000	-6.346	0.099
768.100	4.677	0.099
768.200	1.251	0.100
768.300	10.921	0.100
768.400	-4.364	0.100
768.500	2.215	0.100
768.600	-8.317	0.100
768.700	5.655	0.100
768.800	-0.431	0.100
768.900	-0.127	0.100
769.000	19.152	0.100
769.100	-0.232	0.100
769.200	0.930	0.100
769.300	-8.156	0.100
769.400	6.384	0.100
769.500	9.830	0.100
769.600	1.273	0.100
769.700	6.205	0.100
769.800	-0.059	0.100
769.900	-1.190	0.100
770.000	2.715	0.100
770.100	-0.172	0.100
770.200	-0.578	0.100
770.300	-1.310	0.100
770.400	5.485	0.100
770.500	8.844	0.100
770.600	4.228	0.100
770.700	4.150	0.100
770.800	0.270	0.100
770.900	-4.104	0.100
771.000	5.718	0.100
771.100	0.032	0.100
771.200	0.633	0.100
771.300	-6.375	0.100
771.400	6.020	0.100
771.500	-9.996	0.100
771.600	10.089	0.100
771.700	5.854	0.100
771.800	8.911	0.100
771.900	-0.795	0.100
772.000	-3.965	0.100
772.100	-5.571	0.100
772.200	2.698	0.100
772.300	-8.045	0.100
772.400	7.625	0.100
772.500	20.478	0.100
772.600	-3.470	0.100
772.700	0.164	0.100
772.800	5.017	0.100
772.900	-4.150	0.100
773.000	10.200	0.100
773.100	-1.434	0.100
773.200	-2.460	0.100
773.300	-2.878	0.100
773.400	6.788	0.100
773.500	-6.677	0.100
773.600	3.533	0.100
773.700	6.882	0.100
773.800	1.758	0.100
773.900	0.697	0.100
774.000	-2.931	0.100
774.100	-0.745	0.100
774.200	9.369	0.100
774.300	0.865	0.100
774.400	-2.084	0.100
774.500	3.164	0.100
774.600	2.625	0.100
774.700	0.134	0.100
774.800	-3.483	0.100
774.900	5.356	0.100
775.000	5.604	0.100
775.100	6.165	0.100
775.200	5.183	0.100
775.300	-1.227	0.100
775.400	0.276	0.100
775.500	4.552	0.100
775.600	-9.647	0.100
775.700	13.537	0.100
775.800	3.847	0.100
775.900	1.171	0.100
776.000	-4.122	0.100
776.100	-17.542	0.100
776.200	19.725	0.100
776.300	-5.102	0.100
776.400	0.349	0.100
776.500	4.754	0.100
776.600	-5.016	0.100
776.700	13.644	0.100
776.800	-19.201	0.100
776.900	8.442	0.100
777.000	-3.364	0.100
777.100	0.675	0.100
777.200	12.554	0.100
777.300	0.364	0.100
777.400	16.949	0.100
777.500	-1.080	0.100
777.600	-2.928	0.100
777.700	4.430	0.100
777.800	0.716	0.100
777.900	1.946	0.100
778.000	14.518	0.100
778.100	11.253	0.100
778.200	-7.901	0.100
778.300	-1.172	0.100
778.400	-5.453	0.100
778.500	4.031	0.100
778.600	6.978	0.100
778.700	-3.537	0.100
778.800	4.182	0.100
778.900	-1.261	0.100
779.000	-5.568	0.100
779.100	-2.553	0.100
779.200	-4.227	0.100
779.300	-2.023	0.100
779.400	9.467	0.100
779.500	4.078	0.100
779.600	-0.482	0.100
779.700	1.030	0.100
779.800	-4.956	0.100
779.900	11.492	0.100
780.000	9.854	0.100
780.100	-6.970	0.100
780.200	-2.923	0.100
780.300	-0.472	0.100
780.400	9.750	0.100
780.500	-1.974	0.100
780.600	5.382	0.100
780.700	4.414	0.100
780.800	3.240	0.100
780.900	-3.118	0.100
781.000	16.492	0.100
781.100	11.658	0.100
781.200	-2.115	0.100
781.300	7.557	0.100
781.400	-2.057	0.100
781.500	2.497	0.100
781.600	4.020	0.100
781.700	-8.294	0.100
781.800	5.639	0.100
781.900	-10.942	0.100
782.000	5.422	0.100
782.100	19.928	0.100
782.200	-12.826	0.100
782.300	12.635	0.100
782.400	-1.165	0.100
782.500	17.247	0.100
782.600	-8.940	0.100
782.700	6.818	0.100
782.800	4.931	0.100
782.900	14.280	0.100
783.000	11.725	0.100
783.100	3.428	0.100
783.200	-12.073	0.100
783.300	15.479	0.100
783.400	-4.976	0.100
783.500	17.455	0.100
783.600	9.585	0.100
783.700	10.557	0.100
783.800	-2.357	0.100
783.900	2.217	0.100
784.000	3.448	0.100
784.100	4.054	0.100
784.200	1.206	0.100
784.300	3.973	0.100
784.400	5.045	0.100
784.500	3.295	0.100
784.600	6.941	0.100
784.700	6.172	0.100
784.800	-9.323	0.100
784.900	2.588	0.100
785.000	6.461	0.100
785.100	10.695	0.100
785.200	13.156	0.100
785.300	3.071	0.100
785.400	9.528	0.100
785.500	-7.882	0.100
785.600	13.168	0.100
785.700	12.046	0.100
785.800	3.377	0.100
785.900	-7.715	0.100
786.000	7.925	0.100
786.100	15.780	0.100
786.200	1.424	0.100
786.300	8.768	0.100
786.400	4.315	0.100
786.500	9.749	0.100
786.600	5.350	0.100
786.700	5.458	0.100
786.800	-5.359	0.100
786.900	-0.353	0.100
787.000	-1.004	0.100
787.100	4.047	0.100
787.200	-0.489	0.100
787.300	4.743	0.100
787.400	5.031	0.100
787.500	4.984	0.100
787.600	10.108	0.100
787.700	1.038	0.100
787.800	3.269	0.100
787.900	-2.310	0.100
788.000	4.550	0.100
788.100	7.695	0.100
788.200	2.622	0.100
788.300	-3.373	0.100
788.400	10.346	0.100
788.500	6.677	0.100
788.600	13.168	0.100
788.700	6.388	0.100
788.800	-9.267	0.100
788.900	7.453	0.100
789.000	1.618	0.100
789.100	0.272	0.100
789.200	5.229	0.100
789.300	9.538	0.100
789.400	-2.186	0.100
789.500	-5.554	0.100
789.600	11.729	0.100
789.700	4.248	0.100
789.800	8.130	0.100
789.900	0.514	0.100
790.000	-3.996	0.100
790.100	-4.457	0.100
790.200	16.538	0.100
790.300	5.183	0.100
790.400	0.970	0.100
790.500	-0.147	0.100
790.600	0.152	0.100
790.700	11.017	0.100
790.800	2.984	0.100
790.900	4.128	0.100
791.000	16.960	0.100
791.100	-0.474	0.100
791.200	0.806	0.100
791.300	3.251	0.100
791.400	-5.541	0.100
791.500	3.212	0.100
791.600	22.736	0.100
791.700	12.345	0.100
791.800	-1.619	0.100
791.900	2.297	0.100
792.000	12.866	0.100
792.100	10.415	0.100
792.200	7.969	0.100
792.300	0.160	0.100
792.400	3.598	0.100
792.500	9.299	0.100
792.600	8.993	0.100
792.700	-3.480	0.100
792.800	-0.121	0.100
792.900	-0.206	0.100
793.000	14.943	0.100
793.100	9.406	0.100
793.200	2.189	0.100
793.300	9.263	0.100
793.400	9.096	0.100
793.500	-5.044	0.100
793.600	9.562	0.100
793.700	7.560	0.100
793.800	-2.544	0.100
793.900	6.965	0.100
794.000	1.487	0.100
794.100	-5.201	0.100
794.200	3.024	0.100
794.300	-4.397	0.100
794.400	-0.988	0.100
794.500	6.784	0.100
794.600	6.748	0.100
794.700	11.061	0.100
794.800	-0.553	0.100
794.900	-0.913	0.100
795.000	0.707	0.100
795.100	12.429	0.100
795.200	6.918	0.100
795.300	2.862	0.100
795.400	6.581	0.100
795.500	-4.558	0.100
795.600	11.261	0.100
795.700	6.227	0.100
795.800	-3.862	0.100
795.900	-0.024	0.100
796.000	4.028	0.100
796.100	14.235	0.100
796.200	9.060	0.100
796.300	-1.052	0.100
796.400	3.964	0.100
796.500	4.782	0.100
796.600	4.781	0.100
796.700	-12.300	0.100
796.800	11.957	0.100
796.900	-0.696	0.100
797.000	6.322	0.100
797.100	3.023	0.100
797.200	-1.911	0.100
797.300	5.208	0.100
797.400	5.285	0.100
797.500	-6.197	0.100
797.600	7.615	0.100
797.700	6.289	0.100
797.800	2.888	0.100
797.900	14.238	0.100
798.000	1.445	0.100
798.100	1.604	0.100
798.200	3.000	0.100
798.300	8.456	0.100
798.400	2.994	0.100
798.500	-0.520	0.100
798.600	5.347	0.100
798.700	9.440	0.100
798.800	6.740	0.100
798.900	4.651	0.100
799.000	5.030	0.100
799.100	-4.996	0.100
799.200	-7.368	0.100
799.300	5.401	0.100
799.400	38.000	0.100
799.500	6.697	0.100
799.600	1.612	0.100
799.700	11.310	0.100
799.800	3.724	0.100
799.900	3.868	0.100
800.000	1.623	0.100
