time /s	I /nA	E /V
0.100	-15.924	0.100
0.200	-4.484	0.100
0.300	-0.847	0.100
0.400	-4.692	0.100
0.500	-0.496	0.100
0.600	-5.707	0.100
0.700	-15.776	0.100
0.800	0.466	0.100
0.900	-8.636	0.100
1.000	-11.331	0.100
1.100	-8.132	0.100
1.200	-13.316	0.100
1.300	3.831	0.100
1.400	2.629	0.100
1.500	-1.224	0.100
1.600	-4.313	0.100
1.700	-7.942	0.100
1.800	-18.121	0.100
1.900	-13.543	0.100
2.000	5.988	0.100
2.100	4.148	0.100
2.200	-10.831	0.100
2.300	-2.987	0.100
2.400	-14.692	0.100
2.500	-8.312	0.100
2.600	-9.522	0.100
2.700	-14.324	0.100
2.800	-6.259	0.100
2.900	2.588	0.100
3.000	-0.774	0.100
3.100	-16.008	0.100
3.200	-2.731	0.100
3.300	-9.597	0.100
3.400	-0.699	0.100
3.500	-18.615	0.100
3.600	-10.782	0.100
3.700	-4.173	0.100
3.800	-3.938	0.100
3.900	-16.364	0.100
4.000	-13.840	0.100
4.100	2.425	0.100
4.200	6.625	0.100
4.300	-6.434	0.100
4.400	-16.000	0.100
4.500	-9.667	0.100
4.600	-10.743	0.100
4.700	-26.616	0.100
4.800	-1.554	0.100
4.900	-0.436	0.100
5.000	-6.493	0.100
5.100	-15.908	0.100
5.200	3.090	0.100
5.300	-6.787	0.100
5.400	-9.997	0.100
5.500	8.008	0.100
5.600	2.817	0.100
5.700	-29.415	0.100
5.800	-18.763	0.100
5.900	1.159	0.100
6.000	-10.791	0.100
6.100	-14.366	0.100
6.200	-14.206	0.100
6.300	-9.215	0.100
6.400	7.674	0.100
6.500	0.925	0.100
6.600	-17.736	0.100
6.700	-10.359	0.100
6.800	-8.959	0.100
6.900	-9.895	0.100
7.000	-1.214	0.100
7.100	-27.228	0.100
7.200	9.364	0.100
7.300	-13.693	0.100
7.400	-1.926	0.100
7.500	-16.757	0.100
7.600	-14.384	0.100
7.700	-6.873	0.100
7.800	0.407	0.100
7.900	3.864	0.100
8.000	-10.495	0.100
8.100	-4.634	0.100
8.200	0.372	0.100
8.300	-22.992	0.100
8.400	-19.117	0.100
8.500	2.332	0.100
8.600	-4.093	0.100
8.700	-7.576	0.100
8.800	-7.704	0.100
8.900	-11.112	0.100
9.000	-13.392	0.100
9.100	-2.605	0.100
9.200	-2.475	0.100
9.300	-5.753	0.100
9.400	-16.591	0.100
9.500	-10.428	0.100
9.600	-7.700	0.100
9.700	-12.802	0.100
9.800	-20.044	0.100
9.900	-15.095	0.100
10.000	1.079	0.100
10.100	-16.815	0.100
10.200	-13.049	0.100
10.300	-12.803	0.100
10.400	-2.881	0.100
10.500	-14.371	0.100
10.600	1.185	0.100
10.700	-4.626	0.100
10.800	-1.970	0.100
10.900	-10.785	0.100
11.000	1.146	0.100
11.100	-3.845	0.100
11.200	-7.092	0.100
11.300	-13.102	0.100
11.400	-15.065	0.100
11.500	-1.501	0.100
11.600	-10.548	0.100
11.700	-7.611	0.100
11.800	3.033	0.100
11.900	-9.005	0.100
12.000	-9.447	0.100
12.100	-23.839	0.100
12.200	4.650	0.100
12.300	4.344	0.100
12.400	-10.022	0.100
12.500	-5.393	0.100
12.600	-7.611	0.100
12.700	2.358	0.100
12.800	-2.510	0.100
12.900	-18.707	0.100
13.000	-1.937	0.100
13.100	-4.116	0.100
13.200	-10.603	0.100
13.300	-6.736	0.100
13.400	1.110	0.100
13.500	-3.894	0.100
13.600	-11.223	0.100
13.700	2.782	0.100
13.800	-5.783	0.100
13.900	0.723	0.100
14.000	-6.949	0.100
14.100	-24.132	0.100
14.200	2.482	0.100
14.300	6.442	0.100
14.400	-8.478	0.100
14.500	-10.725	0.100
14.600	-9.047	0.100
14.700	-3.416	0.100
14.800	-11.273	0.100
14.900	1.502	0.100
15.000	-14.837	0.100
15.100	-10.587	0.100
15.200	-16.692	0.100
15.300	-6.993	0.100
15.400	-4.640	0.100
15.500	2.490	0.100
15.600	-0.419	0.100
15.700	-18.083	0.100
15.800	-17.168	0.100
15.900	0.206	0.100
16.000	-1.462	0.100
16.100	-3.523	0.100
16.200	-3.833	0.100
16.300	-19.621	0.100
16.400	-12.434	0.100
16.500	13.416	0.100
16.600	-1.696	0.100
16.700	-20.447	0.100
16.800	-3.471	0.100
16.900	-1.984	0.100
17.000	-7.529	0.100
17.100	-24.056	0.100
17.200	2.593	0.100
17.300	-16.241	0.100
17.400	-6.089	0.100
17.500	-10.894	0.100
17.600	-3.151	0.100
17.700	-5.517	0.100
17.800	-16.873	0.100
17.900	0.948	0.100
18.000	-3.218	0.100
18.100	-3.538	0.100
18.200	-0.458	0.100
18.300	-10.956	0.100
18.400	-14.425	0.100
18.500	-5.417	0.100
18.600	-24.605	0.100
18.700	-10.684	0.100
18.800	-5.000	0.100
18.900	4.650	0.100
19.000	-2.672	0.100
19.100	10.913	0.100
19.200	-17.073	0.100
19.300	-9.692	0.100
19.400	-9.438	0.100
19.500	-2.071	0.100
19.600	-15.157	0.100
19.700	-12.263	0.100
19.800	-7.597	0.100
19.900	-2.243	0.100
20.000	-21.252	0.100
20.100	-5.465	0.100
20.200	-6.085	0.100
20.300	-0.805	0.100
20.400	-17.377	0.100
20.500	-13.112	0.100
20.600	-12.123	0.100
20.700	-11.734	0.100
20.800	4.839	0.100
20.900	-9.935	0.100
21.000	-0.885	0.100
21.100	-15.644	0.100
21.200	-4.038	0.100
21.300	-11.703	0.100
21.400	-7.415	0.100
21.500	-12.616	0.100
21.600	4.130	0.100
21.700	0.533	0.100
21.800	-5.363	0.100
21.900	4.135	0.100
22.000	-14.053	0.100
22.100	-9.426	0.100
22.200	-1.237	0.100
22.300	0.501	0.100
22.400	-6.139	0.100
22.500	-10.986	0.100
22.600	-8.816	0.100
22.700	-4.941	0.100
22.800	-4.785	0.100
22.900	-3.429	0.100
23.000	-4.515	0.100
23.100	2.486	0.100
23.200	-7.701	0.100
23.300	-20.446	0.100
23.400	-12.574	0.100
23.500	-3.140	0.100
23.600	-4.081	0.100
23.700	-0.722	0.100
23.800	-2.922	0.100
23.900	-10.067	0.100
24.000	-6.816	0.100
24.100	-1.784	0.100
24.200	-7.818	0.100
24.300	-10.806	0.100
24.400	-12.244	0.100
24.500	3.706	0.100
24.600	-10.672	0.100
24.700	-5.800	0.100
24.800	-4.255	0.100
24.900	-15.289	0.100
25.000	-6.880	0.100
25.100	-6.585	0.100
25.200	5.697	0.100
25.300	-13.591	0.100
25.400	-8.236	0.100
25.500	-2.204	0.100
25.600	-9.933	0.100
25.700	4.030	0.100
25.800	-16.235	0.100
25.900	-3.410	0.100
26.000	-16.778	0.100
26.100	-1.765	0.100
26.200	-15.287	0.100
26.300	-0.007	0.100
26.400	-11.708	0.100
26.500	0.123	0.100
26.600	1.942	0.100
26.700	-6.159	0.100
26.800	-13.425	0.100
26.900	-28.293	0.100
27.000	-7.528	0.100
27.100	3.975	0.100
27.200	-3.614	0.100
27.300	-4.814	0.100
27.400	-4.880	0.100
27.500	-5.291	0.100
27.600	-1.863	0.100
27.700	-15.756	0.100
27.800	8.393	0.100
27.900	-28.564	0.100
28.000	-2.923	0.100
28.100	-9.540	0.100
28.200	-16.502	0.100
28.300	3.365	0.100
28.400	-2.323	0.100
28.500	-1.443	0.100
28.600	-30.163	0.100
28.700	0.266	0.100
28.800	-2.657	0.100
28.900	-0.314	0.100
29.000	-2.115	0.100
29.100	-12.245	0.100
29.200	-24.885	0.100
29.300	10.787	0.100
29.400	3.280	0.100
29.500	-0.755	0.100
29.600	-12.147	0.100
29.700	-16.103	0.100
29.800	-3.967	0.100
29.900	-7.880	0.100
30.000	-20.827	0.100
30.100	-2.003	0.100
30.200	-0.365	0.100
30.300	12.018	0.100
30.400	0.883	0.100
30.500	-21.620	0.100
30.600	-8.354	0.100
30.700	-4.741	0.100
30.800	3.222	0.100
30.900	-11.363	0.100
31.000	-13.870	0.100
31.100	13.630	0.100
31.200	-10.078	0.100
31.300	-9.652	0.100
31.400	-11.429	0.100
31.500	-1.915	0.100
31.600	-4.385	0.100
31.700	10.301	0.100
31.800	-19.924	0.100
31.900	6.861	0.100
32.000	-10.859	0.100
32.100	-10.651	0.100
32.200	-8.106	0.100
32.300	-13.254	0.100
32.400	-7.878	0.100
32.500	-6.200	0.100
32.600	8.350	0.100
32.700	-14.222	0.100
32.800	-11.896	0.100
32.900	0.067	0.100
33.000	3.228	0.100
33.100	-11.029	0.100
33.200	-8.954	0.100
33.300	-6.843	0.100
33.400	22.223	0.100
33.500	-3.190	0.100
33.600	9.505	0.100
33.700	-4.298	0.100
33.800	-9.334	0.100
33.900	5.112	0.100
34.000	-14.966	0.100
34.100	-2.446	0.100
34.200	2.974	0.100
34.300	-6.015	0.100
34.400	-0.362	0.100
34.500	5.024	0.100
34.600	3.006	0.100
34.700	-0.188	0.100
34.800	-5.661	0.100
34.900	11.020	0.100
35.000	0.600	0.100
35.100	-17.535	0.100
35.200	12.425	0.100
35.300	-3.828	0.100
35.400	-9.721	0.100
35.500	0.358	0.100
35.600	1.188	0.100
35.700	-2.022	0.100
35.800	-1.799	0.100
35.900	8.039	0.100
36.000	3.131	0.100
36.100	1.740	0.100
36.200	1.145	0.100
36.300	-5.254	0.100
36.400	-9.286	0.100
36.500	0.147	0.100
36.600	-10.007	0.100
36.700	4.915	0.100
36.800	-6.997	0.100
36.900	3.097	0.100
37.000	-5.957	0.100
37.100	4.009	0.100
37.200	5.778	0.100
37.300	5.118	0.100
37.400	1.564	0.100
37.500	-1.546	0.100
37.600	5.933	0.100
37.700	-1.204	0.100
37.800	0.860	0.100
37.900	9.360	0.100
38.000	3.666	0.100
38.100	-4.621	0.100
38.200	-6.320	0.100
38.300	-5.052	0.100
38.400	11.001	0.100
38.500	16.347	0.100
38.600	10.239	0.100
38.700	1.533	0.100
38.800	-10.692	0.100
38.900	-4.165	0.100
39.000	6.323	0.100
39.100	-6.840	0.100
39.200	8.064	0.100
39.300	0.305	0.100
39.400	16.903	0.100
39.500	1.267	0.100
39.600	3.656	0.100
39.700	0.087	0.100
39.800	1.578	0.100
39.900	7.515	0.100
40.000	1.105	0.100
40.100	7.726	0.100
40.200	13.975	0.100
40.300	-11.803	0.100
40.400	-1.241	0.100
40.500	12.974	0.100
40.600	-7.953	0.100
40.700	3.559	0.100
40.800	5.070	0.100
40.900	-2.156	0.100
41.000	-1.897	0.100
41.100	-0.455	0.100
41.200	4.678	0.100
41.300	-4.089	0.100
41.400	5.965	0.100
41.500	1.538	0.100
41.600	12.251	0.100
41.700	-5.226	0.100
41.800	9.741	0.100
41.900	6.717	0.100
42.000	3.002	0.100
42.100	-17.174	0.100
42.200	10.529	0.100
42.300	-2.902	0.100
42.400	1.062	0.100
42.500	5.841	0.100
42.600	-0.412	0.100
42.700	9.810	0.100
42.800	-2.068	0.100
42.900	2.977	0.100
43.000	-1.236	0.100
43.100	9.035	0.100
43.200	2.191	0.100
43.300	10.021	0.100
43.400	-0.474	0.100
43.500	-10.451	0.100
43.600	9.595	0.100
43.700	1.916	0.100
43.800	4.597	0.100
43.900	-6.137	0.100
44.000	7.740	0.100
44.100	3.835	0.100
44.200	9.142	0.100
44.300	3.601	0.100
44.400	-5.872	0.100
44.500	-7.424	0.100
44.600	-6.290	0.100
44.700	0.891	0.100
44.800	0.477	0.100
44.900	3.648	0.100
45.000	-11.504	0.100
45.100	4.860	0.100
45.200	-0.119	0.100
45.300	0.692	0.100
45.400	11.522	0.100
45.500	5.734	0.100
45.600	-0.961	0.100
45.700	6.677	0.100
45.800	-0.120	0.100
45.900	2.286	0.100
46.000	-11.377	0.100
46.100	14.543	0.100
46.200	14.326	0.100
46.300	-4.313	0.100
46.400	-0.693	0.100
46.500	10.263	0.100
46.600	0.275	0.100
46.700	-1.704	0.100
46.800	-5.801	0.100
46.900	10.061	0.100
47.000	5.426	0.100
47.100	-4.138	0.100
47.200	1.414	0.100
47.300	2.907	0.100
47.400	5.608	0.100
47.500	-10.220	0.100
47.600	4.042	0.100
47.700	-1.425	0.100
47.800	6.922	0.100
47.900	-10.634	0.100
48.000	-2.061	0.100
48.100	8.234	0.100
48.200	-3.665	0.100
48.300	-8.575	0.100
48.400	14.359	0.100
48.500	1.905	0.100
48.600	-9.683	0.100
48.700	1.127	0.100
48.800	3.322	0.100
48.900	-21.608	0.100
49.000	14.933	0.100
49.100	16.140	0.100
49.200	-9.998	0.100
49.300	-0.813	0.100
49.400	5.452	0.100
49.500	-8.172	0.100
49.600	1.614	0.100
49.700	-1.386	0.100
49.800	-7.349	0.100
49.900	2.286	0.100
50.000	1.725	0.100
50.100	9.869	0.100
50.200	-11.297	0.100
50.300	-10.445	0.100
50.400	-8.248	0.100
50.500	-1.523	0.100
50.600	1.258	0.100
50.700	21.427	0.100
50.800	-3.602	0.100
50.900	-2.996	0.100
51.000	-6.509	0.100
51.100	-0.772	0.100
51.200	6.846	0.100
51.300	-2.023	0.100
51.400	-5.001	0.100
51.500	4.090	0.100
51.600	-4.306	0.100
51.700	-8.560	0.100
51.800	-6.098	0.100
51.900	1.059	0.100
52.000	2.515	0.100
52.100	15.200	0.100
52.200	-6.285	0.100
52.300	-12.133	0.100
52.400	2.326	0.100
52.500	-6.545	0.100
52.600	3.654	0.100
52.700	-9.899	0.100
52.800	2.003	0.100
52.900	-9.121	0.100
53.000	-9.329	0.100
53.100	-11.523	0.100
53.200	-0.058	0.100
53.300	-0.762	0.100
53.400	-2.369	0.100
53.500	-21.021	0.100
53.600	-4.538	0.100
53.700	-17.718	0.100
53.800	-4.337	0.100
53.900	5.702	0.100
54.000	5.781	0.100
54.100	-6.234	0.100
54.200	-14.999	0.100
54.300	-6.156	0.100
54.400	4.865	0.100
54.500	-16.321	0.100
54.600	-2.814	0.100
54.700	-2.646	0.100
54.800	-2.502	0.100
54.900	8.425	0.100
55.000	4.749	0.100
55.100	-2.587	0.100
55.200	-18.617	0.100
55.300	-6.594	0.100
55.400	-3.308	0.100
55.500	-11.094	0.100
55.600	-2.573	0.100
55.700	12.643	0.100
55.800	9.713	0.100
55.900	3.376	0.100
56.000	15.700	0.100
56.100	-16.671	0.100
56.200	-12.436	0.100
56.300	3.312	0.100
56.400	-11.440	0.100
56.500	0.352	0.100
56.600	-4.877	0.100
56.700	-14.553	0.100
56.800	7.057	0.100
56.900	-5.542	0.100
57.000	2.502	0.100
57.100	-8.561	0.100
57.200	3.790	0.100
57.300	-8.286	0.100
57.400	-3.995	0.100
57.500	7.601	0.100
57.600	-12.237	0.100
57.700	-10.212	0.100
57.800	-5.836	0.100
57.900	-11.100	0.100
58.000	-18.960	0.100
58.100	0.002	0.100
58.200	-1.761	0.100
58.300	-6.781	0.100
58.400	10.098	0.100
58.500	-1.685	0.100
58.600	3.832	0.100
58.700	-8.117	0.100
58.800	-7.639	0.100
58.900	0.529	0.100
59.000	-7.914	0.100
59.100	-18.355	0.100
59.200	-5.310	0.100
59.300	-8.853	0.100
59.400	-15.750	0.100
59.500	0.520	0.100
59.600	16.004	0.100
59.700	1.285	0.100
59.800	-0.832	0.100
59.900	-7.831	0.100
60.000	-14.537	0.100
60.100	-3.497	0.100
60.200	-5.396	0.100
60.300	18.390	0.100
60.400	-1.308	0.100
60.500	-11.832	0.100
60.600	4.923	0.100
60.700	-7.856	0.100
60.800	-9.104	0.100
60.900	-0.140	0.100
61.000	0.051	0.100
61.100	5.503	0.100
61.200	2.234	0.100
61.300	-9.191	0.100
61.400	-11.929	0.100
61.500	-9.357	0.100
61.600	14.442	0.100
61.700	-5.664	0.100
61.800	-6.607	0.100
61.900	-9.352	0.100
62.000	3.248	0.100
62.100	-11.078	0.100
62.200	-11.459	0.100
62.300	-7.470	0.100
62.400	-1.015	0.100
62.500	-3.090	0.100
62.600	-17.045	0.100
62.700	3.165	0.100
62.800	0.993	0.100
62.900	11.967	0.100
63.000	-6.135	0.100
63.100	-11.306	0.100
63.200	-10.134	0.100
63.300	4.250	0.100
63.400	-18.314	0.100
63.500	-14.458	0.100
63.600	-23.200	0.100
63.700	18.983	0.100
63.800	-0.288	0.100
63.900	-8.687	0.100
64.000	-9.984	0.100
64.100	-12.675	0.100
64.200	-26.231	0.100
64.300	4.832	0.100
64.400	-1.751	0.100
64.500	-0.570	0.100
64.600	7.444	0.100
64.700	-4.394	0.100
64.800	-9.873	0.100
64.900	-11.105	0.100
65.000	3.739	0.100
65.100	-4.195	0.100
65.200	-15.371	0.100
65.300	13.049	0.100
65.400	-4.512	0.100
65.500	-1.858	0.100
65.600	-16.074	0.100
65.700	-6.930	0.100
65.800	-6.903	0.100
65.900	-2.032	0.100
66.000	-4.114	0.100
66.100	-20.902	0.100
66.200	-11.797	0.100
66.300	3.507	0.100
66.400	-11.722	0.100
66.500	-12.552	0.100
66.600	-36.338	0.100
66.700	-4.503	0.100
66.800	9.704	0.100
66.900	2.238	0.100
67.000	0.484	0.100
67.100	3.503	0.100
67.200	-6.539	0.100
67.300	-7.922	0.100
67.400	-4.352	0.100
67.500	-9.594	0.100
67.600	5.454	0.100
67.700	-5.475	0.100
67.800	0.345	0.100
67.900	-7.324	0.100
68.000	-13.940	0.100
68.100	11.257	0.100
68.200	2.060	0.100
68.300	-3.573	0.100
68.400	4.633	0.100
68.500	3.314	0.100
68.600	-17.765	0.100
68.700	-3.597	0.100
68.800	-22.959	0.100
68.900	-13.261	0.100
69.000	1.950	0.100
69.100	-3.291	0.100
69.200	-1.100	0.100
69.300	-6.970	0.100
69.400	-5.224	0.100
69.500	5.352	0.100
69.600	4.578	0.100
69.700	-23.215	0.100
69.800	-6.025	0.100
69.900	-2.827	0.100
70.000	-13.883	0.100
70.100	-14.389	0.100
70.200	7.059	0.100
70.300	-3.192	0.100
70.400	-31.339	0.100
70.500	0.642	0.100
70.600	-5.933	0.100
70.700	-5.099	0.100
70.800	4.602	0.100
70.900	-0.661	0.100
71.000	1.283	0.100
71.100	-7.468	0.100
71.200	-5.318	0.100
71.300	-6.856	0.100
71.400	1.048	0.100
71.500	-3.295	0.100
71.600	-1.878	0.100
71.700	-8.579	0.100
71.800	-10.318	0.100
71.900	-10.884	0.100
72.000	-6.698	0.100
72.100	11.068	0.100
72.200	-9.865	0.100
72.300	-9.169	0.100
72.400	-16.214	0.100
72.500	-1.251	0.100
72.600	-5.976	0.100
72.700	0.754	0.100
72.800	-12.362	0.100
72.900	-14.160	0.100
73.000	-8.366	0.100
73.100	11.600	0.100
73.200	-8.283	0.100
73.300	-8.498	0.100
73.400	-13.339	0.100
73.500	-16.456	0.100
73.600	-0.876	0.100
73.700	-2.161	0.100
73.800	0.403	0.100
73.900	-1.488	0.100
74.000	-7.226	0.100
74.100	7.812	0.100
74.200	-4.936	0.100
74.300	-18.840	0.100
74.400	-14.595	0.100
74.500	-11.826	0.100
74.600	-5.672	0.100
74.700	-2.853	0.100
74.800	-3.294	0.100
74.900	-17.002	0.100
75.000	1.822	0.100
75.100	-10.665	0.100
75.200	-5.903	0.100
75.300	-12.414	0.100
75.400	-7.461	0.100
75.500	6.792	0.100
75.600	-18.788	0.100
75.700	-20.344	0.100
75.800	-6.672	0.100
75.900	-3.071	0.100
76.000	-7.309	0.100
76.100	-8.315	0.100
76.200	0.163	0.100
76.300	-7.877	0.100
76.400	-9.549	0.100
76.500	-3.622	0.100
76.600	-3.116	0.100
76.700	-2.342	0.100
76.800	-4.877	0.100
76.900	-17.704	0.100
77.000	1.633	0.100
77.100	-8.094	0.100
77.200	2.106	0.100
77.300	-33.881	0.100
77.400	-13.509	0.100
77.500	1.601	0.100
77.600	-11.790	0.100
77.700	-0.839	0.100
77.800	-0.128	0.100
77.900	4.578	0.100
78.000	-9.685	0.100
78.100	-9.125	0.100
78.200	1.324	0.100
78.300	-14.289	0.100
78.400	1.824	0.100
78.500	-14.751	0.100
78.600	-1.583	0.100
78.700	-0.415	0.100
78.800	2.631	0.100
78.900	-23.592	0.100
79.000	-12.149	0.100
79.100	4.726	0.100
79.200	-0.642	0.100
79.300	-0.824	0.100
79.400	-16.489	0.100
79.500	3.081	0.100
79.600	0.069	0.100
79.700	-5.566	0.100
79.800	-8.323	0.100
79.900	-13.980	0.100
80.000	-11.649	0.100
80.100	-1.229	0.100
80.200	-9.440	0.100
80.300	-7.629	0.100
80.400	-2.972	0.100
80.500	-6.910	0.100
80.600	-19.948	0.100
80.700	-14.348	0.100
80.800	-9.284	0.100
80.900	6.376	0.100
81.000	-4.270	0.100
81.100	-8.589	0.100
81.200	-0.080	0.100
81.300	-25.049	0.100
81.400	-9.212	0.100
81.500	-1.368	0.100
81.600	-12.396	0.100
81.700	-0.004	0.100
81.800	6.038	0.100
81.900	9.849	0.100
82.000	-11.245	0.100
82.100	-9.823	0.100
82.200	-9.564	0.100
82.300	-9.064	0.100
82.400	1.620	0.100
82.500	0.126	0.100
82.600	-16.047	0.100
82.700	-6.519	0.100
82.800	-9.167	0.100
82.900	-17.856	0.100
83.000	-20.740	0.100
83.100	-4.824	0.100
83.200	-5.532	0.100
83.300	4.035	0.100
83.400	4.178	0.100
83.500	-16.787	0.100
83.600	-14.306	0.100
83.700	-16.403	0.100
83.800	9.317	0.100
83.900	2.962	0.100
84.000	-0.236	0.100
84.100	-3.090	0.100
84.200	-3.156	0.100
84.300	-6.352	0.100
84.400	-14.017	0.100
84.500	0.089	0.100
84.600	-15.966	0.100
84.700	5.498	0.100
84.800	-14.719	0.100
84.900	-6.178	0.100
85.000	2.924	0.100
85.100	-3.611	0.100
85.200	8.675	0.100
85.300	-7.445	0.100
85.400	0.370	0.100
85.500	-10.530	0.100
85.600	-13.471	0.100
85.700	-16.735	0.100
85.800	1.412	0.100
85.900	6.019	0.100
86.000	-7.720	0.100
86.100	-0.654	0.100
86.200	0.040	0.100
86.300	-1.577	0.100
86.400	-11.379	0.100
86.500	-9.699	0.100
86.600	-0.739	0.100
86.700	0.402	0.100
86.800	-6.828	0.100
86.900	-18.055	0.100
87.000	-9.946	0.100
87.100	4.388	0.100
87.200	-3.888	0.100
87.300	-1.185	0.100
87.400	-6.986	0.100
87.500	-3.599	0.100
87.600	-3.877	0.100
87.700	-3.821	0.100
87.800	-8.293	0.100
87.900	-3.359	0.100
88.000	-3.494	0.100
88.100	-9.171	0.100
88.200	-21.595	0.100
88.300	-27.486	0.100
88.400	4.446	0.100
88.500	-5.427	0.100
88.600	-6.982	0.100
88.700	12.153	0.100
88.800	-1.419	0.100
88.900	-5.229	0.100
89.000	-4.987	0.100
89.100	-10.015	0.100
89.200	-9.562	0.100
89.300	-11.122	0.100
89.400	-5.941	0.100
89.500	-12.705	0.100
89.600	-2.011	0.100
89.700	0.474	0.100
89.800	-6.704	0.100
89.900	0.575	0.100
90.000	-6.132	0.100
90.100	-14.639	0.100
90.200	0.098	0.100
90.300	-1.667	0.100
90.400	3.446	0.100
90.500	-14.049	0.100
90.600	5.285	0.100
90.700	-2.086	0.100
90.800	-11.261	0.100
90.900	-0.148	0.100
91.000	-2.550	0.100
91.100	-9.897	0.100
91.200	-1.190	0.100
91.300	-11.532	0.100
91.400	-14.685	0.100
91.500	-6.369	0.100
91.600	-19.652	0.100
91.700	9.295	0.100
91.800	-6.763	0.100
91.900	-4.871	0.100
92.000	-4.404	0.100
92.100	-11.627	0.100
92.200	-9.073	0.100
92.300	-19.533	0.100
92.400	-3.718	0.100
92.500	-2.667	0.100
92.600	-9.322	0.100
92.700	-12.330	0.100
92.800	-14.004	0.100
92.900	-5.989	0.100
93.000	-4.657	0.100
93.100	-12.576	0.100
93.200	-2.328	0.100
93.300	-14.882	0.100
93.400	-8.677	0.100
93.500	-0.546	0.100
93.600	-19.463	0.100
93.700	-2.117	0.100
93.800	-9.450	0.100
93.900	-11.308	0.100
94.000	-7.797	0.100
94.100	-1.946	0.100
94.200	16.911	0.100
94.300	-4.195	0.100
94.400	-2.520	0.100
94.500	-23.279	0.100
94.600	-14.446	0.100
94.700	4.426	0.100
94.800	-22.307	0.100
94.900	-2.883	0.100
95.000	-14.029	0.100
95.100	3.337	0.100
95.200	1.769	0.100
95.300	-18.066	0.100
95.400	-5.684	0.100
95.500	-10.089	0.100
95.600	-22.591	0.100
95.700	-3.603	0.100
95.800	-7.224	0.100
95.900	-16.613	0.100
96.000	-4.602	0.100
96.100	-14.966	0.100
96.200	-9.644	0.100
96.300	-6.418	0.100
96.400	-3.469	0.100
96.500	-23.707	0.100
96.600	-13.525	0.100
96.700	-1.590	0.100
96.800	-19.171	0.100
96.900	-3.232	0.100
97.000	-10.934	0.100
97.100	-10.058	0.100
97.200	18.139	0.100
97.300	-20.848	0.100
97.400	-17.210	0.100
97.500	8.748	0.100
97.600	-18.070	0.100
97.700	-10.696	0.100
97.800	-28.593	0.100
97.900	-7.046	0.100
98.000	-5.308	0.100
98.100	-26.352	0.100
98.200	-21.037	0.100
98.300	0.194	0.100
98.400	-17.127	0.100
98.500	-5.755	0.100
98.600	-10.382	0.100
98.700	-9.963	0.100
98.800	-13.199	0.100
98.900	-20.368	0.100
99.000	-2.248	0.100
99.100	-3.664	0.100
99.200	5.405	0.100
99.300	-23.018	0.100
99.400	-3.812	0.100
99.500	-16.796	0.100
99.600	-16.017	0.100
99.700	-9.127	0.100
99.800	-16.909	0.100
99.900	-9.946	0.100
100.000	-3.944	0.100
100.100	-17.320	0.100
100.200	-9.646	0.100
100.300	-1.482	0.100
100.400	-22.368	0.100
100.500	-15.445	0.100
100.600	-13.394	0.100
100.700	-4.716	0.100
100.800	-4.234	0.100
100.900	-10.895	0.100
101.000	-4.536	0.100
101.100	-24.195	0.100
101.200	-13.599	0.100
101.300	-6.099	0.100
101.400	-1.256	0.100
101.500	-11.542	0.100
101.600	-3.117	0.100
101.700	0.405	0.100
101.800	-24.833	0.100
101.900	-14.895	0.100
102.000	-23.717	0.100
102.100	-1.671	0.100
102.200	10.487	0.100
102.300	-20.259	0.100
102.400	-8.870	0.100
102.500	-9.828	0.100
102.600	-29.098	0.100
102.700	-20.406	0.100
102.800	2.663	0.100
102.900	-17.034	0.100
103.000	-19.315	0.100
103.100	0.402	0.100
103.200	-0.605	0.100
103.300	-12.973	0.100
103.400	-15.684	0.100
103.500	-17.800	0.100
103.600	0.550	0.100
103.700	-28.059	0.100
103.800	3.065	0.100
103.900	-4.962	0.100
104.000	-4.420	0.100
104.100	-22.403	0.100
104.200	-9.974	0.100
104.300	-4.437	0.100
104.400	-14.886	0.100
104.500	-11.250	0.100
104.600	-10.020	0.100
104.700	-23.836	0.100
104.800	-13.404	0.100
104.900	-1.435	0.100
105.000	-10.531	0.100
105.100	-10.140	0.100
105.200	-30.904	0.100
105.300	-8.208	0.100
105.400	-4.417	0.100
105.500	-6.743	0.100
105.600	-11.418	0.100
105.700	-2.405	0.100
105.800	-10.132	0.100
105.900	-19.430	0.100
106.000	-12.404	0.100
106.100	-7.828	0.100
106.200	18.273	0.100
106.300	-3.870	0.100
106.400	-11.912	0.100
106.500	-9.958	0.100
106.600	-1.902	0.100
106.700	-9.584	0.100
106.800	-5.139	0.100
106.900	-26.265	0.100
107.000	-3.998	0.100
107.100	-8.430	0.100
107.200	-7.063	0.100
107.300	-10.934	0.100
107.400	-5.181	0.100
107.500	5.356	0.100
107.600	0.282	0.100
107.700	-12.856	0.100
107.800	-11.793	0.100
107.900	-5.069	0.100
108.000	-5.006	0.100
108.100	-4.485	0.100
108.200	-17.128	0.100
108.300	-1.208	0.100
108.400	-5.172	0.100
108.500	-7.081	0.100
108.600	-10.424	0.100
108.700	-24.713	0.100
108.800	-11.125	0.100
108.900	-0.791	0.100
109.000	-0.726	0.100
109.100	-29.813	0.100
109.200	21.794	0.100
109.300	-6.708	0.100
109.400	-15.339	0.100
109.500	-4.195	0.100
109.600	-11.936	0.100
109.700	-10.815	0.100
109.800	-15.363	0.100
109.900	-14.780	0.100
110.000	9.067	0.100
110.100	-13.968	0.100
110.200	-13.128	0.100
110.300	-12.194	0.100
110.400	-0.420	0.100
110.500	-15.921	0.100
110.600	-4.189	0.100
110.700	-20.468	0.100
110.800	-14.045	0.100
110.900	-16.334	0.100
111.000	-9.875	0.100
111.100	-11.792	0.100
111.200	1.313	0.100
111.300	-17.416	0.100
111.400	-31.024	0.100
111.500	-3.145	0.100
111.600	5.069	0.100
111.700	-1.242	0.100
111.800	-33.443	0.100
111.900	-6.871	0.100
112.000	-17.563	0.100
112.100	-3.684	0.100
112.200	-15.332	0.100
112.300	-15.146	0.100
112.400	-8.181	0.100
112.500	-24.521	0.100
112.600	-1.309	0.100
112.700	6.347	0.100
112.800	-11.928	0.100
112.900	-10.633	0.100
113.000	-2.718	0.100
113.100	-5.908	0.100
113.200	-7.327	0.100
113.300	-7.336	0.100
113.400	-2.115	0.100
113.500	-15.140	0.100
113.600	-11.321	0.100
113.700	-11.169	0.100
113.800	-10.839	0.100
113.900	-15.026	0.100
114.000	-35.767	0.100
114.100	4.156	0.100
114.200	-7.658	0.100
114.300	-9.907	0.100
114.400	-20.916	0.100
114.500	-1.012	0.100
114.600	-14.456	0.100
114.700	-19.441	0.100
114.800	-4.797	0.100
114.900	-10.434	0.100
115.000	-11.107	0.100
115.100	3.703	0.100
115.200	-11.997	0.100
115.300	-7.538	0.100
115.400	-16.398	0.100
115.500	-21.325	0.100
115.600	-9.778	0.100
115.700	0.492	0.100
115.800	-14.385	0.100
115.900	-7.068	0.100
116.000	-16.785	0.100
116.100	12.710	0.100
116.200	-2.878	0.100
116.300	-14.426	0.100
116.400	-17.651	0.100
116.500	-7.952	0.100
116.600	0.092	0.100
116.700	-10.996	0.100
116.800	-21.030	0.100
116.900	-3.356	0.100
117.000	-7.183	0.100
117.100	-26.484	0.100
117.200	6.363	0.100
117.300	-18.543	0.100
117.400	-5.400	0.100
117.500	-27.360	0.100
117.600	-6.031	0.100
117.700	0.781	0.100
117.800	-4.325	0.100
117.900	-15.524	0.100
118.000	-5.714	0.100
118.100	10.548	0.100
118.200	-2.657	0.100
118.300	-4.325	0.100
118.400	-2.571	0.100
118.500	8.828	0.100
118.600	-9.023	0.100
118.700	-21.254	0.100
118.800	-7.733	0.100
118.900	-4.493	0.100
119.000	-18.259	0.100
119.100	-12.164	0.100
119.200	-2.137	0.100
119.300	-13.905	0.100
119.400	-12.985	0.100
119.500	-19.189	0.100
119.600	-9.274	0.100
119.700	-1.358	0.100
119.800	-0.383	0.100
119.900	-8.098	0.100
120.000	-10.496	0.100
120.100	-13.949	0.100
120.200	0.132	0.100
120.300	-6.539	0.100
120.400	-8.629	0.100
120.500	6.750	0.100
120.600	-8.386	0.100
120.700	-15.866	0.100
120.800	1.609	0.100
120.900	-8.125	0.100
121.000	-14.504	0.100
121.100	-2.431	0.100
121.200	-4.342	0.100
121.300	-12.917	0.100
121.400	-2.757	0.100
121.500	-16.521	0.100
121.600	-16.850	0.100
121.700	-10.347	0.100
121.800	1.775	0.100
121.900	-10.655	0.100
122.000	-16.079	0.100
122.100	8.390	0.100
122.200	-3.531	0.100
122.300	-5.395	0.100
122.400	-14.785	0.100
122.500	-1.439	0.100
122.600	-4.517	0.100
122.700	-6.242	0.100
122.800	5.070	0.100
122.900	-6.643	0.100
123.000	-15.684	0.100
123.100	-14.476	0.100
123.200	-6.523	0.100
123.300	-17.448	0.100
123.400	6.514	0.100
123.500	-21.352	0.100
123.600	3.018	0.100
123.700	-4.207	0.100
123.800	-11.682	0.100
123.900	-13.132	0.100
124.000	-6.985	0.100
124.100	-13.036	0.100
124.200	2.533	0.100
124.300	-22.755	0.100
124.400	-24.378	0.100
124.500	-3.248	0.100
124.600	-16.387	0.100
124.700	0.466	0.100
124.800	-7.702	0.100
124.900	-10.639	0.100
125.000	-1.446	0.100
125.100	-15.428	0.100
125.200	-17.699	0.100
125.300	-3.166	0.100
125.400	0.278	0.100
125.500	-1.591	0.100
125.600	-5.542	0.100
125.700	-9.097	0.100
125.800	-12.449	0.100
125.900	-15.900	0.100
126.000	-9.805	0.100
126.100	-11.924	0.100
126.200	-13.099	0.100
126.300	-11.450	0.100
126.400	-13.990	0.100
126.500	-15.744	0.100
126.600	-6.362	0.100
126.700	-13.887	0.100
126.800	12.308	0.100
126.900	2.121	0.100
127.000	-10.634	0.100
127.100	-14.453	0.100
127.200	-12.787	0.100
127.300	-13.116	0.100
127.400	-0.137	0.100
127.500	-15.154	0.100
127.600	-18.597	0.100
127.700	-0.519	0.100
127.800	-16.149	0.100
127.900	-13.344	0.100
128.000	-12.587	0.100
128.100	-8.254	0.100
128.200	-18.302	0.100
128.300	-2.678	0.100
128.400	1.395	0.100
128.500	-13.864	0.100
128.600	-26.537	0.100
128.700	-1.277	0.100
128.800	-9.252	0.100
128.900	3.111	0.100
129.000	-1.558	0.100
129.100	-7.557	0.100
129.200	-11.787	0.100
129.300	-18.385	0.100
129.400	2.434	0.100
129.500	-16.349	0.100
129.600	-6.396	0.100
129.700	-6.099	0.100
129.800	-13.799	0.100
129.900	-9.926	0.100
130.000	-5.124	0.100
130.100	-16.212	0.100
130.200	-11.143	0.100
130.300	-2.735	0.100
130.400	-13.148	0.100
130.500	-15.633	0.100
130.600	-5.966	0.100
130.700	-20.043	0.100
130.800	-23.252	0.100
130.900	7.292	0.100
131.000	12.302	0.100
131.100	-14.007	0.100
131.200	-11.113	0.100
131.300	-12.752	0.100
131.400	-3.381	0.100
131.500	12.561	0.100
131.600	-18.518	0.100
131.700	-8.570	0.100
131.800	-7.154	0.100
131.900	-2.594	0.100
132.000	-14.016	0.100
132.100	-19.987	0.100
132.200	-5.001	0.100
132.300	4.074	0.100
132.400	-15.676	0.100
132.500	-6.098	0.100
132.600	-13.179	0.100
132.700	-9.024	0.100
132.800	-13.978	0.100
132.900	-2.565	0.100
133.000	-5.259	0.100
133.100	4.729	0.100
133.200	-8.879	0.100
133.300	-12.086	0.100
133.400	-8.013	0.100
133.500	-8.271	0.100
133.600	-9.109	0.100
133.700	5.588	0.100
133.800	-16.531	0.100
133.900	-9.566	0.100
134.000	-7.679	0.100
134.100	-13.590	0.100
134.200	-4.271	0.100
134.300	-26.010	0.100
134.400	-2.469	0.100
134.500	-1.464	0.100
134.600	1.921	0.100
134.700	-25.507	0.100
134.800	8.361	0.100
134.900	-12.350	0.100
135.000	-6.132	0.100
135.100	0.053	0.100
135.200	-16.807	0.100
135.300	-10.634	0.100
135.400	-15.786	0.100
135.500	3.670	0.100
135.600	-16.220	0.100
135.700	4.300	0.100
135.800	5.872	0.100
135.900	-21.697	0.100
136.000	-16.896	0.100
136.100	-1.422	0.100
136.200	-5.422	0.100
136.300	-6.198	0.100
136.400	-14.195	0.100
136.500	-4.159	0.100
136.600	1.510	0.100
136.700	-9.107	0.100
136.800	-13.159	0.100
136.900	-7.125	0.100
137.000	-18.246	0.100
137.100	-0.543	0.100
137.200	1.090	0.100
137.300	-8.944	0.100
137.400	-5.896	0.100
137.500	-21.236	0.100
137.600	1.028	0.100
137.700	5.676	0.100
137.800	-7.759	0.100
137.900	1.286	0.100
138.000	-12.864	0.100
138.100	-7.280	0.100
138.200	0.028	0.100
138.300	-10.985	0.100
138.400	-7.952	0.100
138.500	0.361	0.100
138.600	-1.003	0.100
138.700	-3.021	0.100
138.800	-13.463	0.100
138.900	-12.638	0.100
139.000	-6.402	0.100
139.100	2.198	0.100
139.200	-18.892	0.100
139.300	-13.573	0.100
139.400	-7.741	0.100
139.500	-10.084	0.100
139.600	-8.415	0.100
139.700	-11.548	0.100
139.800	-5.796	0.100
139.900	6.354	0.100
140.000	-6.760	0.100
140.100	-7.978	0.100
140.200	-21.897	0.100
140.300	6.755	0.100
140.400	-14.401	0.100
140.500	-6.291	0.100
140.600	-2.943	0.100
140.700	-21.187	0.100
140.800	-6.762	0.100
140.900	19.155	0.100
141.000	-5.690	0.100
141.100	-24.249	0.100
141.200	-16.738	0.100
141.300	-9.704	0.100
141.400	-3.600	0.100
141.500	-7.341	0.100
141.600	-0.211	0.100
141.700	-4.672	0.100
141.800	-9.704	0.100
141.900	-10.688	0.100
142.000	-8.973	0.100
142.100	7.399	0.100
142.200	-3.231	0.100
142.300	-12.336	0.100
142.400	-5.876	0.100
142.500	4.921	0.100
142.600	6.055	0.100
142.700	-11.812	0.100
142.800	-10.655	0.100
142.900	-8.118	0.100
143.000	-7.466	0.100
143.100	-22.286	0.100
143.200	-24.802	0.100
143.300	3.512	0.100
143.400	1.425	0.100
143.500	-11.009	0.099
143.600	10.019	0.100
143.700	-15.264	0.100
143.800	-13.641	0.100
143.900	-9.769	0.100
144.000	-6.243	0.100
144.100	-6.603	0.100
144.200	-8.396	0.100
144.300	0.333	0.100
144.400	-8.639	0.100
144.500	-8.341	0.100
144.600	-15.154	0.100
144.700	-8.602	0.100
144.800	-2.473	0.100
144.900	-9.388	0.100
145.000	-10.351	0.100
145.100	-12.864	0.100
145.200	-7.755	0.100
145.300	-2.109	0.100
145.400	6.078	0.100
145.500	-23.295	0.100
145.600	-10.743	0.100
145.700	-8.446	0.100
145.800	-6.393	0.100
145.900	-10.142	0.100
146.000	5.909	0.100
146.100	3.208	0.100
146.200	-8.705	0.100
146.300	-15.260	0.100
146.400	-5.672	0.100
146.500	-8.519	0.100
146.600	-12.989	0.100
146.700	0.091	0.100
146.800	-0.087	0.100
146.900	0.438	0.100
147.000	-4.186	0.100
147.100	-16.839	0.100
147.200	-1.008	0.100
147.300	5.030	0.100
147.400	-17.749	0.100
147.500	-10.132	0.100
147.600	-1.440	0.100
147.700	-10.504	0.100
147.800	-9.152	0.100
147.900	0.681	0.100
148.000	-8.528	0.100
148.100	-4.359	0.100
148.200	-10.262	0.100
148.300	-8.428	0.100
148.400	-0.828	0.100
148.500	-1.084	0.100
148.600	-4.807	0.100
148.700	-11.566	0.100
148.800	-14.631	0.100
148.900	-10.422	0.100
149.000	-0.325	0.100
149.100	-5.963	0.100
149.200	-12.336	0.100
149.300	-9.064	0.100
149.400	-3.968	0.100
149.500	-6.964	0.100
149.600	-5.907	0.100
149.700	8.030	0.100
149.800	-3.502	0.100
149.900	-18.156	0.100
150.000	-0.112	0.100
150.100	-7.757	0.100
150.200	-5.742	0.100
150.300	-3.581	0.100
150.400	-11.358	0.100
150.500	-10.800	0.100
150.600	1.861	0.100
150.700	-21.667	0.100
150.800	-4.862	0.100
150.900	-1.991	0.100
151.000	-6.789	0.100
151.100	-2.505	0.100
151.200	-7.663	0.100
151.300	0.756	0.100
151.400	-4.027	0.100
151.500	-4.583	0.100
151.600	-6.654	0.100
151.700	2.497	0.100
151.800	3.670	0.100
151.900	-4.318	0.100
152.000	-9.519	0.100
152.100	-11.977	0.100
152.200	-0.754	0.100
152.300	1.819	0.100
152.400	-1.761	0.100
152.500	1.597	0.100
152.600	0.981	0.100
152.700	-2.826	0.100
152.800	-4.282	0.100
152.900	-10.372	0.100
153.000	-29.501	0.100
153.100	-2.108	0.100
153.200	-3.931	0.100
153.300	1.887	0.100
153.400	-1.203	0.100
153.500	-14.662	0.100
153.600	0.386	0.100
153.700	-4.199	0.100
153.800	-16.539	0.100
153.900	10.593	0.100
154.000	-2.778	0.100
154.100	-11.472	0.100
154.200	-2.192	0.100
154.300	0.015	0.100
154.400	-5.880	0.100
154.500	-9.192	0.100
154.600	0.514	0.100
154.700	-3.528	0.100
154.800	-2.152	0.100
154.900	-5.147	0.100
155.000	-21.164	0.100
155.100	7.125	0.100
155.200	-13.338	0.100
155.300	-1.416	0.100
155.400	2.093	0.100
155.500	-16.130	0.100
155.600	-1.143	0.100
155.700	0.331	0.100
155.800	-7.562	0.100
155.900	-25.071	0.100
156.000	-18.095	0.100
156.100	-19.025	0.100
156.200	-8.538	0.100
156.300	-7.300	0.100
156.400	-16.265	0.100
156.500	-14.078	0.100
156.600	-5.233	0.100
156.700	-12.092	0.100
156.800	-3.535	0.100
156.900	-5.954	0.100
157.000	-5.233	0.100
157.100	-11.821	0.100
157.200	7.914	0.100
157.300	0.510	0.100
157.400	-14.114	0.100
157.500	-1.104	0.100
157.600	-2.675	0.100
157.700	-4.676	0.100
157.800	-14.038	0.100
157.900	-7.702	0.100
158.000	-8.113	0.100
158.100	4.554	0.100
158.200	-3.866	0.100
158.300	-9.336	0.100
158.400	-14.508	0.100
158.500	-0.462	0.100
158.600	4.131	0.100
158.700	-3.015	0.100
158.800	-3.831	0.099
158.900	-21.859	0.100
159.000	-4.755	0.100
159.100	1.468	0.100
159.200	4.730	0.100
159.300	-7.586	0.100
159.400	-7.158	0.100
159.500	-13.362	0.100
159.600	-12.602	0.100
159.700	-13.891	0.100
159.800	-5.512	0.100
159.900	18.258	0.100
160.000	1.065	0.100
160.100	-20.514	0.100
160.200	10.785	0.100
160.300	2.412	0.100
160.400	-8.678	0.100
160.500	-12.219	0.100
160.600	-11.603	0.100
160.700	-4.904	0.100
160.800	-20.059	0.100
160.900	-2.981	0.100
161.000	-19.386	0.100
161.100	5.432	0.100
161.200	-17.909	0.100
161.300	-10.614	0.100
161.400	-4.455	0.100
161.500	-16.513	0.100
161.600	-5.517	0.100
161.700	-10.739	0.100
161.800	-11.295	0.100
161.900	-3.845	0.100
162.000	-2.082	0.100
162.100	-0.568	0.100
162.200	-24.552	0.100
162.300	-3.998	0.100
162.400	-8.203	0.100
162.500	-18.251	0.100
162.600	-10.153	0.100
162.700	-2.938	0.100
162.800	-19.879	0.100
162.900	-8.249	0.100
163.000	-16.027	0.100
163.100	3.819	0.100
163.200	-5.858	0.100
163.300	-4.273	0.100
163.400	-3.153	0.100
163.500	0.777	0.100
163.600	-4.393	0.100
163.700	-12.108	0.100
163.800	-9.655	0.100
163.900	0.811	0.099
164.000	-5.924	0.100
164.100	-1.743	0.100
164.200	-14.124	0.100
164.300	-0.260	0.100
164.400	-7.214	0.100
164.500	1.278	0.100
164.600	-12.417	0.100
164.700	-10.249	0.100
164.800	-2.287	0.100
164.900	-4.664	0.100
165.000	-17.415	0.100
165.100	10.039	0.100
165.200	-8.221	0.100
165.300	-18.252	0.100
165.400	2.955	0.100
165.500	-9.287	0.100
165.600	-9.130	0.100
165.700	-5.924	0.100
165.800	-7.097	0.100
165.900	-14.469	0.100
166.000	-8.293	0.100
166.100	-10.476	0.100
166.200	1.310	0.100
166.300	-6.976	0.100
166.400	-5.651	0.100
166.500	0.722	0.100
166.600	-0.055	0.100
166.700	-9.213	0.100
166.800	-7.738	0.100
166.900	-2.102	0.100
167.000	3.385	0.100
167.100	-0.809	0.100
167.200	-14.051	0.100
167.300	-4.454	0.100
167.400	-12.943	0.100
167.500	-13.733	0.100
167.600	-7.909	0.100
167.700	-2.534	0.100
167.800	-3.605	0.100
167.900	6.989	0.100
168.000	-4.643	0.100
168.100	-11.137	0.100
168.200	1.689	0.100
168.300	-11.293	0.100
168.400	6.350	0.100
168.500	1.009	0.100
168.600	-11.844	0.100
168.700	-4.603	0.100
168.800	-7.299	0.100
168.900	-10.704	0.100
169.000	2.400	0.100
169.100	-20.315	0.100
169.200	5.051	0.100
169.300	0.961	0.100
169.400	-17.720	0.100
169.500	7.295	0.100
169.600	-4.013	0.100
169.700	-16.724	0.100
169.800	-0.266	0.100
169.900	4.370	0.100
170.000	-4.331	0.100
170.100	-3.516	0.100
170.200	1.325	0.100
170.300	-5.475	0.100
170.400	5.313	0.100
170.500	7.740	0.100
170.600	-10.907	0.100
170.700	-6.583	0.100
170.800	-3.969	0.100
170.900	-12.437	0.100
171.000	-11.500	0.100
171.100	-5.634	0.100
171.200	6.714	0.100
171.300	-12.042	0.100
171.400	-11.406	0.100
171.500	-3.770	0.100
171.600	-12.561	0.100
171.700	-1.524	0.100
171.800	-0.595	0.100
171.900	-9.226	0.100
172.000	-2.714	0.100
172.100	-17.980	0.100
172.200	-12.954	0.100
172.300	4.040	0.100
172.400	-18.209	0.100
172.500	-16.230	0.100
172.600	-5.661	0.100
172.700	8.316	0.100
172.800	-12.379	0.100
172.900	5.282	0.100
173.000	-14.344	0.100
173.100	-14.942	0.100
173.200	-18.664	0.100
173.300	4.423	0.100
173.400	-3.143	0.100
173.500	-18.682	0.100
173.600	-5.182	0.100
173.700	13.960	0.100
173.800	-1.159	0.100
173.900	-4.069	0.100
174.000	-6.684	0.100
174.100	-7.293	0.100
174.200	-19.183	0.100
174.300	-3.455	0.100
174.400	10.190	0.100
174.500	7.590	0.100
174.600	-0.397	0.100
174.700	-11.756	0.100
174.800	-18.115	0.100
174.900	5.839	0.100
175.000	-5.042	0.100
175.100	-7.495	0.100
175.200	-23.352	0.100
175.300	-22.230	0.100
175.400	1.213	0.100
175.500	-3.589	0.100
175.600	-8.555	0.100
175.700	-4.331	0.100
175.800	-2.365	0.100
175.900	-3.969	0.100
176.000	-7.806	0.100
176.100	-4.868	0.100
176.200	-13.846	0.100
176.300	-11.226	0.100
176.400	13.547	0.100
176.500	7.087	0.100
176.600	-1.231	0.100
176.700	-8.001	0.100
176.800	2.445	0.100
176.900	-3.512	0.100
177.000	-1.240	0.100
177.100	-1.681	0.100
177.200	-11.354	0.100
177.300	-4.686	0.100
177.400	-8.224	0.100
177.500	-9.159	0.100
177.600	-14.955	0.100
177.700	-0.107	0.100
177.800	-9.895	0.100
177.900	-13.796	0.100
178.000	0.716	0.100
178.100	-3.164	0.100
178.200	-11.507	0.100
178.300	-2.602	0.100
178.400	-14.525	0.100
178.500	-8.360	0.100
178.600	-1.117	0.100
178.700	-0.746	0.100
178.800	6.966	0.100
178.900	-12.723	0.100
179.000	-1.312	0.100
179.100	-0.195	0.100
179.200	0.299	0.100
179.300	-10.970	0.100
179.400	-12.130	0.100
179.500	-9.315	0.100
179.600	-1.466	0.100
179.700	9.476	0.100
179.800	-2.190	0.100
179.900	-2.997	0.100
180.000	-1.759	0.100
180.100	-6.449	0.100
180.200	-4.855	0.100
180.300	5.786	0.100
180.400	-15.890	0.100
180.500	-16.561	0.100
180.600	-3.862	0.100
180.700	-2.300	0.100
180.800	0.219	0.100
180.900	-18.630	0.100
181.000	-0.271	0.100
181.100	-8.973	0.100
181.200	-4.460	0.100
181.300	0.308	0.100
181.400	-4.885	0.100
181.500	-24.062	0.100
181.600	3.199	0.100
181.700	5.062	0.100
181.800	-21.874	0.100
181.900	0.981	0.100
182.000	-16.992	0.100
182.100	-5.856	0.100
182.200	-4.491	0.100
182.300	5.654	0.100
182.400	-6.673	0.100
182.500	2.849	0.100
182.600	-10.715	0.100
182.700	-9.796	0.100
182.800	2.830	0.100
182.900	4.908	0.100
183.000	-5.876	0.100
183.100	-23.847	0.100
183.200	-8.353	0.100
183.300	-2.855	0.100
183.400	3.533	0.100
183.500	-3.916	0.100
183.600	-1.215	0.100
183.700	-4.296	0.100
183.800	-8.690	0.100
183.900	18.400	0.100
184.000	-6.116	0.100
184.100	-2.719	0.100
184.200	-10.165	0.100
184.300	-1.998	0.100
184.400	0.208	0.100
184.500	-6.009	0.100
184.600	0.384	0.100
184.700	-2.042	0.100
184.800	1.793	0.100
184.900	-4.259	0.100
185.000	11.062	0.100
185.100	6.556	0.100
185.200	0.204	0.100
185.300	-1.727	0.100
185.400	-17.231	0.100
185.500	13.635	0.100
185.600	-4.100	0.100
185.700	4.470	0.100
185.800	-2.078	0.100
185.900	1.566	0.100
186.000	0.898	0.100
186.100	8.816	0.100
186.200	-5.182	0.100
186.300	-2.768	0.100
186.400	20.216	0.100
186.500	-8.096	0.100
186.600	-2.733	0.100
186.700	-9.209	0.100
186.800	-12.119	0.100
186.900	7.924	0.100
187.000	2.916	0.100
187.100	-2.486	0.100
187.200	15.557	0.100
187.300	10.013	0.100
187.400	-10.784	0.100
187.500	-1.891	0.100
187.600	0.169	0.100
187.700	-12.477	0.100
187.800	-0.402	0.100
187.900	6.739	0.100
188.000	-3.284	0.100
188.100	-2.820	0.100
188.200	8.056	0.100
188.300	3.781	0.100
188.400	4.544	0.100
188.500	4.904	0.100
188.600	1.094	0.100
188.700	-9.376	0.100
188.800	0.355	0.100
188.900	-4.667	0.100
189.000	14.916	0.100
189.100	-3.052	0.100
189.200	4.177	0.100
189.300	-17.247	0.100
189.400	1.500	0.100
189.500	7.718	0.100
189.600	2.844	0.100
189.700	2.757	0.100
189.800	-1.717	0.100
189.900	-0.202	0.100
190.000	3.526	0.100
190.100	-6.349	0.100
190.200	-7.658	0.100
190.300	20.130	0.100
190.400	3.052	0.100
190.500	-8.349	0.100
190.600	-3.849	0.100
190.700	14.462	0.100
190.800	-9.599	0.100
190.900	8.987	0.100
191.000	2.345	0.100
191.100	0.430	0.100
191.200	8.042	0.100
191.300	1.164	0.100
191.400	-3.660	0.100
191.500	-11.765	0.100
191.600	-4.328	0.100
191.700	2.021	0.100
191.800	-11.954	0.100
191.900	-1.353	0.100
192.000	3.570	0.100
192.100	0.482	0.100
192.200	2.291	0.100
192.300	12.840	0.100
192.400	-21.914	0.100
192.500	9.984	0.100
192.600	10.481	0.100
192.700	-12.802	0.100
192.800	-8.735	0.100
192.900	17.801	0.100
193.000	-0.760	0.100
193.100	-6.731	0.100
193.200	6.983	0.100
193.300	20.612	0.100
193.400	-2.774	0.100
193.500	2.875	0.100
193.600	-3.900	0.100
193.700	-8.400	0.100
193.800	-5.144	0.100
193.900	3.468	0.100
194.000	10.041	0.100
194.100	1.220	0.100
194.200	2.897	0.100
194.300	-6.589	0.100
194.400	13.756	0.100
194.500	-6.154	0.100
194.600	-12.743	0.100
194.700	5.217	0.100
194.800	6.542	0.100
194.900	1.306	0.100
195.000	2.810	0.100
195.100	-1.827	0.100
195.200	-6.520	0.100
195.300	1.066	0.100
195.400	-4.486	0.100
195.500	1.631	0.100
195.600	-3.766	0.100
195.700	-2.447	0.100
195.800	1.034	0.100
195.900	-2.274	0.100
196.000	-7.234	0.100
196.100	-3.415	0.100
196.200	11.799	0.100
196.300	3.961	0.100
196.400	-3.036	0.100
196.500	1.017	0.100
196.600	9.523	0.100
196.700	5.170	0.100
196.800	-5.334	0.100
196.900	6.018	0.100
197.000	-6.654	0.100
197.100	-2.282	0.100
197.200	4.708	0.100
197.300	7.805	0.100
197.400	1.037	0.100
197.500	19.786	0.100
197.600	7.497	0.100
197.700	-11.262	0.100
197.800	0.251	0.100
197.900	-11.124	0.100
198.000	12.446	0.100
198.100	10.078	0.100
198.200	-5.463	0.100
198.300	1.383	0.100
198.400	-5.972	0.100
198.500	8.666	0.100
198.600	8.696	0.100
198.700	-3.558	0.100
198.800	-14.050	0.100
198.900	1.318	0.100
199.000	12.346	0.100
199.100	-1.801	0.100
199.200	5.876	0.100
199.300	4.891	0.100
199.400	-13.848	0.100
199.500	3.880	0.100
199.600	-7.654	0.100
199.700	2.896	0.100
199.800	-1.303	0.100
199.900	14.264	0.100
200.000	-6.140	0.100
200.100	-2.992	0.100
200.200	-4.430	0.100
200.300	1.029	0.100
200.400	-5.859	0.100
200.500	-4.746	0.100
200.600	-4.318	0.100
200.700	14.158	0.100
200.800	-2.467	0.100
200.900	8.514	0.100
201.000	6.595	0.100
201.100	-2.932	0.100
201.200	-9.781	0.100
201.300	2.699	0.100
201.400	5.152	0.100
201.500	6.407	0.100
201.600	10.310	0.100
201.700	13.682	0.100
201.800	7.392	0.100
201.900	-0.675	0.100
202.000	-0.719	0.100
202.100	-10.153	0.100
202.200	3.166	0.100
202.300	9.666	0.100
202.400	-5.339	0.100
202.500	1.414	0.100
202.600	-3.610	0.100
202.700	2.991	0.100
202.800	3.201	0.100
202.900	3.279	0.100
203.000	17.824	0.100
203.100	-4.428	0.100
203.200	-6.972	0.100
203.300	-10.688	0.100
203.400	-4.619	0.100
203.500	-2.758	0.100
203.600	-3.524	0.100
203.700	-1.392	0.100
203.800	-3.098	0.100
203.900	15.987	0.100
204.000	-4.131	0.100
204.100	7.026	0.100
204.200	13.214	0.100
204.300	-27.951	0.100
204.400	12.469	0.100
204.500	3.559	0.100
204.600	0.348	0.100
204.700	0.781	0.100
204.800	-7.323	0.100
204.900	-12.423	0.100
205.000	10.959	0.100
205.100	5.584	0.100
205.200	5.402	0.100
205.300	-6.583	0.100
205.400	-7.211	0.100
205.500	3.876	0.100
205.600	-8.789	0.100
205.700	3.317	0.100
205.800	3.342	0.100
205.900	-16.625	0.100
206.000	-13.069	0.100
206.100	3.293	0.100
206.200	14.426	0.100
206.300	-5.185	0.100
206.400	-0.452	0.100
206.500	-0.519	0.100
206.600	-10.513	0.100
206.700	-3.829	0.100
206.800	9.368	0.100
206.900	-10.838	0.100
207.000	0.841	0.100
207.100	-14.790	0.100
207.200	9.781	0.100
207.300	12.630	0.100
207.400	-23.081	0.100
207.500	-6.560	0.100
207.600	-0.743	0.100
207.700	-6.110	0.100
207.800	2.484	0.100
207.900	0.796	0.100
208.000	12.493	0.100
208.100	5.235	0.100
208.200	0.698	0.100
208.300	-7.908	0.100
208.400	-9.422	0.100
208.500	-3.324	0.100
208.600	2.385	0.100
208.700	3.255	0.100
208.800	-2.735	0.100
208.900	-10.477	0.100
209.000	-4.695	0.100
209.100	-0.534	0.100
209.200	-5.305	0.100
209.300	6.044	0.100
209.400	2.994	0.100
209.500	0.482	0.100
209.600	-13.627	0.100
209.700	10.319	0.100
209.800	-7.132	0.100
209.900	3.086	0.100
210.000	0.681	0.100
210.100	-3.523	0.100
210.200	3.087	0.100
210.300	3.806	0.100
210.400	-10.529	0.100
210.500	15.774	0.100
210.600	-2.595	0.100
210.700	2.009	0.100
210.800	-7.218	0.100
210.900	-0.811	0.100
211.000	-5.588	0.100
211.100	10.218	0.100
211.200	-1.588	0.100
211.300	-5.001	0.100
211.400	-5.634	0.100
211.500	3.320	0.100
211.600	3.651	0.100
211.700	1.939	0.100
211.800	4.106	0.100
211.900	0.561	0.100
212.000	-1.778	0.100
212.100	-9.121	0.100
212.200	-10.753	0.100
212.300	-0.650	0.100
212.400	-20.280	0.100
212.500	14.923	0.100
212.600	-3.325	0.100
212.700	-4.119	0.100
212.800	-5.453	0.100
212.900	6.399	0.100
213.000	-14.031	0.100
213.100	-1.880	0.100
213.200	10.059	0.100
213.300	-9.036	0.100
213.400	-12.218	0.100
213.500	-6.318	0.100
213.600	-3.742	0.100
213.700	-10.513	0.100
213.800	-5.237	0.100
213.900	2.160	0.100
214.000	4.526	0.100
214.100	-21.769	0.100
214.200	-0.251	0.100
214.300	-6.972	0.100
214.400	-11.542	0.100
214.500	-6.052	0.100
214.600	1.721	0.100
214.700	0.914	0.100
214.800	15.343	0.100
214.900	-16.710	0.100
215.000	8.035	0.100
215.100	-3.192	0.100
215.200	-1.076	0.100
215.300	0.290	0.100
215.400	-0.193	0.100
215.500	-2.765	0.100
215.600	-0.440	0.100
215.700	0.634	0.100
215.800	-16.459	0.100
215.900	11.401	0.100
216.000	-2.051	0.100
216.100	4.673	0.100
216.200	-9.824	0.100
216.300	-5.352	0.100
216.400	-2.503	0.100
216.500	-0.025	0.100
216.600	-14.815	0.100
216.700	3.366	0.100
216.800	-14.667	0.100
216.900	-8.639	0.100
217.000	27.279	0.100
217.100	1.993	0.100
217.200	-10.217	0.100
217.300	5.187	0.100
217.400	-16.610	0.100
217.500	-7.319	0.100
217.600	16.391	0.100
217.700	-1.819	0.100
217.800	-11.479	0.100
217.900	-2.017	0.100
218.000	-5.857	0.100
218.100	-11.226	0.100
218.200	6.484	0.100
218.300	3.251	0.100
218.400	1.753	0.100
218.500	-4.490	0.100
218.600	-11.030	0.100
218.700	-7.575	0.100
218.800	-20.172	0.100
218.900	8.689	0.100
219.000	-0.036	0.100
219.100	3.506	0.100
219.200	-4.685	0.100
219.300	-23.093	0.100
219.400	-12.830	0.100
219.500	2.635	0.100
219.600	2.392	0.100
219.700	-14.393	0.100
219.800	1.464	0.100
219.900	-5.639	0.100
220.000	-6.807	0.100
220.100	-18.982	0.100
220.200	-6.005	0.100
220.300	5.575	0.100
220.400	4.535	0.100
220.500	-0.903	0.100
220.600	-2.433	0.100
220.700	6.773	0.100
220.800	-12.525	0.100
220.900	-19.335	0.100
221.000	-11.998	0.100
221.100	12.816	0.100
221.200	-1.050	0.100
221.300	1.637	0.100
221.400	-13.415	0.100
221.500	-4.156	0.100
221.600	4.496	0.100
221.700	-10.940	0.100
221.800	10.930	0.100
221.900	-3.734	0.100
222.000	-4.879	0.100
222.100	-0.925	0.100
222.200	14.540	0.100
222.300	5.860	0.100
222.400	-1.493	0.100
222.500	-13.948	0.100
222.600	9.828	0.100
222.700	-10.138	0.100
222.800	0.554	0.100
222.900	-15.760	0.100
223.000	1.367	0.100
223.100	12.336	0.100
223.200	-19.666	0.100
223.300	-3.819	0.100
223.400	-0.149	0.100
223.500	-5.899	0.100
223.600	-4.756	0.100
223.700	1.694	0.100
223.800	13.537	0.100
223.900	-8.227	0.100
224.000	4.613	0.100
224.100	-2.225	0.100
224.200	-7.242	0.100
224.300	-8.367	0.100
224.400	3.338	0.100
224.500	11.631	0.100
224.600	-4.964	0.100
224.700	-2.702	0.100
224.800	-4.561	0.100
224.900	11.317	0.100
225.000	-4.449	0.100
225.100	-14.980	0.100
225.200	-0.112	0.100
225.300	3.848	0.100
225.400	6.399	0.100
225.500	-8.850	0.100
225.600	-4.929	0.100
225.700	-2.181	0.100
225.800	-1.522	0.100
225.900	0.264	0.100
226.000	-3.936	0.100
226.100	-6.943	0.100
226.200	9.108	0.100
226.300	-13.237	0.100
226.400	-14.267	0.100
226.500	5.057	0.100
226.600	10.000	0.100
226.700	-9.872	0.100
226.800	1.998	0.100
226.900	4.048	0.100
227.000	-0.401	0.100
227.100	-5.269	0.100
227.200	-10.257	0.100
227.300	-9.746	0.100
227.400	-5.014	0.100
227.500	-6.171	0.100
227.600	1.324	0.100
227.700	-6.484	0.100
227.800	12.257	0.100
227.900	-11.797	0.100
228.000	-4.791	0.100
228.100	-8.698	0.100
228.200	-1.637	0.100
228.300	-10.067	0.100
228.400	-5.383	0.100
228.500	-14.319	0.100
228.600	-10.546	0.100
228.700	9.203	0.100
228.800	16.950	0.100
228.900	-8.617	0.100
229.000	-6.399	0.100
229.100	-5.577	0.100
229.200	14.954	0.100
229.300	-18.876	0.100
229.400	-9.054	0.100
229.500	5.804	0.100
229.600	-12.740	0.100
229.700	0.295	0.100
229.800	-1.244	0.100
229.900	-5.254	0.100
230.000	5.529	0.100
230.100	-10.984	0.100
230.200	5.445	0.100
230.300	-16.615	0.100
230.400	-1.287	0.100
230.500	6.736	0.100
230.600	-9.319	0.100
230.700	-8.927	0.100
230.800	10.354	0.100
230.900	21.812	0.100
231.000	-0.311	0.100
231.100	-6.460	0.100
231.200	-7.782	0.100
231.300	-0.825	0.100
231.400	-11.196	0.100
231.500	-14.115	0.100
231.600	4.832	0.100
231.700	-5.736	0.100
231.800	3.251	0.100
231.900	-8.096	0.100
232.000	6.031	0.100
232.100	0.834	0.100
232.200	-1.079	0.100
232.300	-5.472	0.100
232.400	-5.285	0.100
232.500	-0.831	0.100
232.600	-5.281	0.100
232.700	11.875	0.100
232.800	-9.063	0.100
232.900	-19.841	0.100
233.000	5.467	0.100
233.100	-4.386	0.100
233.200	2.393	0.100
233.300	2.868	0.100
233.400	1.086	0.100
233.500	-12.969	0.100
233.600	3.738	0.100
233.700	-0.911	0.100
233.800	2.057	0.100
233.900	-8.771	0.100
234.000	0.388	0.100
234.100	-0.999	0.100
234.200	-4.551	0.100
234.300	-3.653	0.100
234.400	-9.817	0.100
234.500	4.184	0.100
234.600	-6.155	0.100
234.700	-0.155	0.100
234.800	-4.788	0.100
234.900	4.099	0.100
235.000	-0.609	0.100
235.100	6.976	0.100
235.200	-6.807	0.100
235.300	-28.222	0.100
235.400	-5.849	0.100
235.500	11.396	0.100
235.600	1.123	0.100
235.700	1.386	0.100
235.800	-16.959	0.100
235.900	3.905	0.100
236.000	-2.505	0.100
236.100	4.298	0.100
236.200	-15.031	0.100
236.300	15.119	0.100
236.400	-15.688	0.100
236.500	7.675	0.100
236.600	-7.126	0.100
236.700	-2.302	0.100
236.800	-13.644	0.100
236.900	0.774	0.100
237.000	-8.689	0.100
237.100	0.748	0.100
237.200	1.646	0.100
237.300	-12.650	0.100
237.400	-5.521	0.100
237.500	-11.763	0.100
237.600	-13.979	0.100
237.700	-7.973	0.100
237.800	-9.269	0.100
237.900	-3.446	0.100
238.000	-10.709	0.100
238.100	0.783	0.100
238.200	-1.262	0.100
238.300	-6.193	0.100
238.400	-21.280	0.100
238.500	-3.406	0.100
238.600	-4.243	0.100
238.700	0.424	0.100
238.800	12.907	0.100
238.900	-13.751	0.100
239.000	4.061	0.100
239.100	-8.704	0.100
239.200	12.906	0.100
239.300	-16.575	0.100
239.400	-9.571	0.100
239.500	-11.669	0.100
239.600	-14.821	0.100
239.700	-7.125	0.100
239.800	-1.904	0.100
239.900	-16.623	0.100
240.000	4.945	0.100
240.100	-15.824	0.100
240.200	-3.089	0.100
240.300	-0.007	0.100
240.400	0.897	0.100
240.500	-1.441	0.100
240.600	-4.789	0.100
240.700	-11.364	0.100
240.800	-3.727	0.100
240.900	-19.589	0.100
241.000	-0.493	0.100
241.100	-14.301	0.100
241.200	-5.764	0.100
241.300	9.834	0.100
241.400	6.656	0.100
241.500	-12.225	0.100
241.600	6.008	0.100
241.700	9.499	0.100
241.800	-5.553	0.100
241.900	4.159	0.100
242.000	-5.461	0.100
242.100	-2.557	0.100
242.200	-14.734	0.100
242.300	4.555	0.100
242.400	-22.850	0.100
242.500	1.351	0.100
242.600	0.012	0.100
242.700	-0.301	0.100
242.800	-8.767	0.100
242.900	-1.897	0.100
243.000	-10.918	0.100
243.100	-7.067	0.100
243.200	-2.400	0.100
243.300	-3.682	0.100
243.400	-21.357	0.100
243.500	2.802	0.100
243.600	7.831	0.100
243.700	-3.161	0.100
243.800	-17.387	0.100
243.900	4.158	0.100
244.000	-3.773	0.100
244.100	-2.624	0.100
244.200	-3.773	0.100
244.300	-3.434	0.100
244.400	3.705	0.100
244.500	-2.994	0.099
244.600	-17.643	0.100
244.700	6.366	0.100
244.800	-4.767	0.100
244.900	-6.222	0.100
245.000	-4.277	0.100
245.100	-8.077	0.100
245.200	-9.562	0.100
245.300	-20.557	0.100
245.400	-16.330	0.099
245.500	4.548	0.100
245.600	-13.369	0.100
245.700	-1.412	0.100
245.800	-22.688	0.100
245.900	-2.913	0.100
246.000	-0.480	0.100
246.100	-5.472	0.100
246.200	-0.282	0.100
246.300	-3.905	0.100
246.400	-13.085	0.100
246.500	3.418	0.100
246.600	-24.438	0.100
246.700	-4.161	0.100
246.800	1.325	0.100
246.900	-4.020	0.100
247.000	-12.946	0.100
247.100	-11.980	0.100
247.200	-6.815	0.100
247.300	1.602	0.100
247.400	-11.830	0.100
247.500	-13.192	0.100
247.600	-13.338	0.100
247.700	17.961	0.100
247.800	-21.006	0.100
247.900	-9.729	0.100
248.000	0.180	0.100
248.100	-7.428	0.100
248.200	-5.152	0.100
248.300	-0.151	0.100
248.400	-16.687	0.100
248.500	9.811	0.100
248.600	-8.020	0.100
248.700	-24.750	0.100
248.800	-10.751	0.100
248.900	-0.648	0.100
249.000	2.123	0.100
249.100	-15.633	0.100
249.200	4.453	0.100
249.300	1.242	0.100
249.400	-6.224	0.100
249.500	-20.406	0.100
249.600	4.046	0.100
249.700	-12.512	0.100
249.800	-18.448	0.100
249.900	-11.605	0.100
250.000	-1.758	0.100
250.100	-9.132	0.100
250.200	-5.177	0.100
250.300	-8.013	0.100
250.400	-7.786	0.100
250.500	-3.010	0.100
250.600	-16.204	0.100
250.700	5.482	0.100
250.800	-12.404	0.100
250.900	-5.190	0.100
251.000	-3.457	0.100
251.100	-4.820	0.100
251.200	-8.316	0.100
251.300	-12.328	0.100
251.400	-1.981	0.100
251.500	-1.586	0.100
251.600	-9.664	0.100
251.700	-2.807	0.100
251.800	-14.956	0.100
251.900	-8.554	0.100
252.000	7.651	0.100
252.100	-13.594	0.100
252.200	8.928	0.100
252.300	-22.724	0.100
252.400	4.316	0.100
252.500	-5.195	0.100
252.600	5.762	0.100
252.700	-4.253	0.100
252.800	-11.929	0.100
252.900	-3.402	0.100
253.000	9.509	0.100
253.100	5.962	0.100
253.200	-16.131	0.100
253.300	-1.060	0.100
253.400	-6.370	0.100
253.500	-8.224	0.100
253.600	-11.797	0.100
253.700	-4.864	0.100
253.800	-18.581	0.100
253.900	0.675	0.100
254.000	-11.664	0.100
254.100	-30.045	0.100
254.200	14.302	0.100
254.300	22.683	0.100
254.400	-13.323	0.100
254.500	-11.688	0.100
254.600	-10.946	0.100
254.700	-8.533	0.100
254.800	2.652	0.100
254.900	-8.500	0.100
255.000	-11.480	0.100
255.100	1.050	0.100
255.200	-6.862	0.100
255.300	-7.939	0.100
255.400	-5.132	0.100
255.500	-6.909	0.100
255.600	0.903	0.100
255.700	-7.689	0.100
255.800	-2.966	0.100
255.900	-2.121	0.100
256.000	-16.815	0.100
256.100	-15.853	0.100
256.200	-14.105	0.100
256.300	3.579	0.100
256.400	-5.829	0.100
256.500	-13.852	0.100
256.600	-8.427	0.100
256.700	-4.230	0.100
256.800	8.033	0.100
256.900	2.311	0.100
257.000	-16.007	0.100
257.100	4.316	0.100
257.200	5.509	0.100
257.300	-3.490	0.100
257.400	-0.053	0.100
257.500	-5.778	0.100
257.600	-13.836	0.100
257.700	0.381	0.100
257.800	-0.355	0.100
257.900	-9.449	0.100
258.000	-1.785	0.100
258.100	-2.611	0.100
258.200	-6.810	0.100
258.300	2.622	0.100
258.400	-2.119	0.100
258.500	-2.235	0.100
258.600	-14.273	0.100
258.700	-13.492	0.100
258.800	0.254	0.100
258.900	-14.291	0.100
259.000	-0.866	0.100
259.100	-7.769	0.100
259.200	0.882	0.100
259.300	0.887	0.100
259.400	-12.045	0.100
259.500	-1.434	0.100
259.600	-11.403	0.100
259.700	1.228	0.100
259.800	-11.507	0.100
259.900	-7.090	0.100
260.000	-11.190	0.100
260.100	-2.742	0.100
260.200	-0.294	0.100
260.300	-10.797	0.100
260.400	-7.722	0.100
260.500	-6.277	0.100
260.600	-5.443	0.100
260.700	-5.373	0.100
260.800	-6.488	0.100
260.900	-12.359	0.100
261.000	-5.553	0.100
261.100	-0.962	0.100
261.200	-10.801	0.100
261.300	-5.694	0.100
261.400	-10.760	0.100
261.500	2.787	0.100
261.600	-8.829	0.100
261.700	-13.455	0.100
261.800	-17.329	0.100
261.900	0.757	0.100
262.000	4.769	0.100
262.100	-3.891	0.100
262.200	-5.959	0.100
262.300	-9.167	0.100
262.400	-10.470	0.100
262.500	2.250	0.100
262.600	-0.658	0.100
262.700	-6.598	0.100
262.800	-12.466	0.100
262.900	-7.479	0.100
263.000	-1.104	0.100
263.100	-7.758	0.100
263.200	-19.544	0.100
263.300	-0.065	0.100
263.400	-2.308	0.100
263.500	-6.595	0.100
263.600	-2.024	0.100
263.700	-13.442	0.100
263.800	7.713	0.100
263.900	-5.934	0.100
264.000	7.233	0.100
264.100	8.506	0.100
264.200	-4.404	0.100
264.300	-0.453	0.100
264.400	-5.046	0.100
264.500	-13.494	0.100
264.600	1.886	0.100
264.700	-0.252	0.100
264.800	-12.645	0.100
264.900	20.335	0.100
265.000	-21.070	0.100
265.100	-17.790	0.100
265.200	-11.036	0.100
265.300	3.490	0.100
265.400	-2.733	0.100
265.500	1.642	0.100
265.600	-8.503	0.100
265.700	0.475	0.100
265.800	-7.752	0.100
265.900	3.554	0.100
266.000	0.338	0.100
266.100	-8.230	0.100
266.200	3.269	0.100
266.300	5.608	0.100
266.400	-7.753	0.100
266.500	-19.329	0.100
266.600	0.983	0.100
266.700	-2.514	0.100
266.800	2.906	0.100
266.900	7.160	0.100
267.000	-3.883	0.100
267.100	-13.808	0.100
267.200	2.927	0.100
267.300	-8.766	0.100
267.400	-17.090	0.100
267.500	-9.162	0.100
267.600	10.773	0.100
267.700	1.422	0.100
267.800	-21.760	0.100
267.900	-11.383	0.100
268.000	-1.882	0.100
268.100	-13.730	0.100
268.200	6.744	0.100
268.300	-14.584	0.100
268.400	-11.665	0.100
268.500	7.237	0.100
268.600	-16.716	0.100
268.700	7.891	0.100
268.800	-9.529	0.100
268.900	-5.967	0.100
269.000	-9.683	0.100
269.100	-8.415	0.100
269.200	11.889	0.100
269.300	3.661	0.100
269.400	-19.629	0.100
269.500	-8.122	0.100
269.600	-3.766	0.100
269.700	-4.026	0.100
269.800	-12.787	0.100
269.900	-1.868	0.100
270.000	4.615	0.100
270.100	-16.205	0.100
270.200	-1.998	0.100
270.300	5.645	0.100
270.400	-11.811	0.100
270.500	3.397	0.100
270.600	5.161	0.100
270.700	-7.384	0.100
270.800	-2.896	0.100
270.900	-14.904	0.100
271.000	0.266	0.100
271.100	-8.760	0.100
271.200	-5.764	0.100
271.300	-12.276	0.100
271.400	0.379	0.100
271.500	6.976	0.100
271.600	-6.259	0.100
271.700	-19.077	0.100
271.800	-3.369	0.100
271.900	-11.191	0.100
272.000	-0.830	0.100
272.100	7.257	0.100
272.200	-2.165	0.100
272.300	-15.801	0.100
272.400	-5.537	0.100
272.500	-15.712	0.100
272.600	2.396	0.100
272.700	-2.511	0.100
272.800	2.463	0.100
272.900	-7.742	0.100
273.000	1.916	0.100
273.100	-17.136	0.100
273.200	4.274	0.100
273.300	1.226	0.100
273.400	4.475	0.100
273.500	0.906	0.100
273.600	5.437	0.100
273.700	-6.443	0.100
273.800	-3.371	0.100
273.900	-15.608	0.100
274.000	-18.100	0.100
274.100	4.549	0.100
274.200	14.089	0.100
274.300	-5.077	0.100
274.400	-7.305	0.100
274.500	-0.978	0.100
274.600	2.578	0.100
274.700	-5.975	0.100
274.800	-14.152	0.100
274.900	-8.114	0.100
275.000	-12.653	0.100
275.100	1.868	0.100
275.200	6.080	0.100
275.300	-25.257	0.100
275.400	3.475	0.100
275.500	-3.725	0.100
275.600	-15.750	0.100
275.700	10.624	0.100
275.800	-10.053	0.100
275.900	-7.197	0.100
276.000	-7.554	0.100
276.100	3.835	0.100
276.200	-7.034	0.100
276.300	-0.011	0.100
276.400	-9.489	0.100
276.500	-5.267	0.100
276.600	-9.393	0.100
276.700	-8.712	0.100
276.800	13.047	0.100
276.900	-12.921	0.100
277.000	-3.076	0.100
277.100	-5.157	0.100
277.200	6.335	0.100
277.300	-8.350	0.100
277.400	-6.013	0.100
277.500	-4.179	0.100
277.600	-2.024	0.100
277.700	13.266	0.100
277.800	0.003	0.100
277.900	-27.358	0.100
278.000	-8.287	0.100
278.100	5.909	0.100
278.200	-13.742	0.100
278.300	-6.622	0.100
278.400	6.285	0.100
278.500	0.666	0.100
278.600	-5.169	0.100
278.700	-1.494	0.100
278.800	11.897	0.100
278.900	-11.217	0.100
279.000	1.520	0.100
279.100	-5.304	0.100
279.200	0.113	0.100
279.300	-2.506	0.100
279.400	7.821	0.100
279.500	5.187	0.100
279.600	-11.563	0.100
279.700	-2.744	0.100
279.800	-3.300	0.100
279.900	3.591	0.100
280.000	2.090	0.100
280.100	-10.277	0.100
280.200	4.437	0.100
280.300	-4.849	0.100
280.400	-19.183	0.100
280.500	-4.286	0.100
280.600	4.406	0.100
280.700	2.640	0.100
280.800	-0.276	0.100
280.900	-6.442	0.100
281.000	-9.734	0.100
281.100	-12.012	0.100
281.200	1.211	0.100
281.300	3.980	0.100
281.400	-7.758	0.100
281.500	-5.041	0.100
281.600	-5.114	0.100
281.700	-6.572	0.100
281.800	6.821	0.100
281.900	-3.387	0.100
282.000	-2.152	0.100
282.100	-5.393	0.100
282.200	-5.886	0.100
282.300	7.660	0.100
282.400	2.657	0.100
282.500	-15.572	0.100
282.600	-7.819	0.100
282.700	-5.817	0.100
282.800	3.312	0.100
282.900	-12.352	0.100
283.000	-17.969	0.100
283.100	-9.438	0.100
283.200	-5.587	0.100
283.300	-2.912	0.100
283.400	-7.721	0.100
283.500	0.834	0.100
283.600	-2.301	0.100
283.700	-25.628	0.100
283.800	-23.692	0.100
283.900	9.068	0.100
284.000	-5.095	0.100
284.100	-3.337	0.100
284.200	-14.913	0.100
284.300	-7.111	0.100
284.400	-12.814	0.100
284.500	-8.836	0.100
284.600	-1.037	0.100
284.700	3.669	0.100
284.800	5.420	0.100
284.900	-11.084	0.100
285.000	8.680	0.100
285.100	4.785	0.100
285.200	-7.080	0.100
285.300	9.311	0.100
285.400	-10.498	0.100
285.500	-3.389	0.100
285.600	-17.581	0.100
285.700	3.027	0.100
285.800	2.881	0.100
285.900	-4.537	0.100
286.000	-6.653	0.100
286.100	-11.707	0.100
286.200	2.880	0.100
286.300	-2.977	0.100
286.400	-12.147	0.100
286.500	-14.289	0.100
286.600	1.935	0.100
286.700	5.112	0.100
286.800	-2.575	0.100
286.900	-0.923	0.100
287.000	-4.734	0.100
287.100	0.106	0.100
287.200	-8.865	0.100
287.300	-4.094	0.100
287.400	-6.316	0.100
287.500	-1.273	0.100
287.600	-5.186	0.100
287.700	3.016	0.100
287.800	-12.060	0.100
287.900	-5.783	0.100
288.000	-13.506	0.100
288.100	10.093	0.100
288.200	5.040	0.100
288.300	1.118	0.100
288.400	-13.090	0.100
288.500	-13.779	0.100
288.600	5.921	0.100
288.700	1.728	0.100
288.800	-4.681	0.100
288.900	-1.170	0.100
289.000	-3.047	0.100
289.100	-11.947	0.100
289.200	-16.066	0.100
289.300	0.019	0.100
289.400	-3.933	0.100
289.500	-3.903	0.100
289.600	-3.647	0.100
289.700	-7.691	0.100
289.800	1.442	0.100
289.900	-21.943	0.100
290.000	15.142	0.100
290.100	2.331	0.100
290.200	20.584	0.100
290.300	-3.970	0.100
290.400	-14.201	0.100
290.500	-6.631	0.100
290.600	1.366	0.100
290.700	-6.260	0.100
290.800	-13.025	0.100
290.900	9.334	0.100
291.000	2.840	0.100
291.100	-0.766	0.100
291.200	11.489	0.100
291.300	1.623	0.100
291.400	-12.406	0.100
291.500	1.822	0.100
291.600	-6.859	0.100
291.700	-2.655	0.100
291.800	-19.605	0.100
291.900	-7.013	0.100
292.000	2.624	0.100
292.100	-4.476	0.100
292.200	4.141	0.100
292.300	-5.763	0.100
292.400	0.562	0.100
292.500	2.982	0.100
292.600	-18.475	0.100
292.700	5.210	0.100
292.800	-3.910	0.100
292.900	-1.240	0.100
293.000	-12.067	0.100
293.100	2.086	0.100
293.200	4.600	0.100
293.300	-9.565	0.100
293.400	-1.367	0.100
293.500	-2.087	0.100
293.600	3.242	0.100
293.700	-4.836	0.100
293.800	-1.132	0.100
293.900	15.578	0.100
294.000	-0.345	0.100
294.100	-20.434	0.100
294.200	-3.014	0.100
294.300	8.664	0.100
294.400	-12.673	0.100
294.500	-8.413	0.100
294.600	-0.005	0.100
294.700	-11.716	0.100
294.800	3.775	0.100
294.900	-6.307	0.100
295.000	-9.857	0.100
295.100	10.742	0.100
295.200	-15.315	0.100
295.300	-10.029	0.100
295.400	10.393	0.100
295.500	2.090	0.100
295.600	-6.364	0.100
295.700	-9.598	0.100
295.800	-14.658	0.100
295.900	2.222	0.100
296.000	-8.962	0.100
296.100	-8.022	0.100
296.200	4.292	0.100
296.300	-4.831	0.100
296.400	6.652	0.100
296.500	1.205	0.100
296.600	-17.740	0.100
296.700	4.976	0.100
296.800	-6.322	0.100
296.900	1.515	0.100
297.000	4.296	0.100
297.100	-2.100	0.100
297.200	-18.573	0.100
297.300	2.941	0.100
297.400	-8.545	0.100
297.500	-5.955	0.100
297.600	-10.363	0.100
297.700	-13.240	0.100
297.800	-5.555	0.100
297.900	7.487	0.100
298.000	8.120	0.100
298.100	-3.224	0.100
298.200	-16.898	0.100
298.300	3.533	0.100
298.400	-2.230	0.100
298.500	-1.069	0.100
298.600	-15.826	0.100
298.700	-11.829	0.100
298.800	14.144	0.100
298.900	-0.020	0.100
299.000	-0.089	0.100
299.100	4.093	0.100
299.200	-9.283	0.100
299.300	-7.381	0.100
299.400	-10.354	0.100
299.500	2.694	0.100
299.600	-20.786	0.100
299.700	5.332	0.100
299.800	-7.060	0.100
299.900	-5.999	0.100
300.000	6.825	0.100
300.100	-4.373	0.100
300.200	2.442	0.100
300.300	-0.674	0.100
300.400	-2.948	0.100
300.500	-8.098	0.100
300.600	-9.048	0.100
300.700	-10.594	0.100
300.800	-9.001	0.100
300.900	-1.878	0.100
301.000	-11.657	0.100
301.100	10.660	0.100
301.200	2.166	0.100
301.300	-9.620	0.100
301.400	16.703	0.100
301.500	-0.579	0.100
301.600	-7.016	0.100
301.700	-0.930	0.100
301.800	7.529	0.100
301.900	5.265	0.100
302.000	-8.359	0.100
302.100	-9.368	0.100
302.200	5.040	0.100
302.300	-4.578	0.100
302.400	8.285	0.100
302.500	-24.892	0.100
302.600	9.763	0.100
302.700	6.292	0.100
302.800	-5.606	0.100
302.900	-5.944	0.100
303.000	-0.129	0.100
303.100	-5.966	0.100
303.200	-10.262	0.100
303.300	-2.786	0.100
303.400	2.228	0.100
303.500	-8.860	0.100
303.600	-8.917	0.100
303.700	6.658	0.100
303.800	0.991	0.100
303.900	-0.330	0.100
304.000	2.880	0.100
304.100	-13.315	0.100
304.200	-2.676	0.100
304.300	7.188	0.100
304.400	11.251	0.100
304.500	-15.489	0.100
304.600	-5.483	0.100
304.700	0.571	0.100
304.800	1.618	0.100
304.900	-19.223	0.100
305.000	3.898	0.100
305.100	-10.138	0.100
305.200	-5.673	0.100
305.300	-2.047	0.100
305.400	1.818	0.100
305.500	-3.444	0.100
305.600	5.933	0.100
305.700	-6.264	0.100
305.800	-6.095	0.100
305.900	-0.409	0.100
306.000	13.185	0.100
306.100	-24.060	0.100
306.200	3.344	0.100
306.300	4.429	0.100
306.400	-7.984	0.100
306.500	-2.337	0.100
306.600	1.564	0.100
306.700	-9.688	0.100
306.800	-5.866	0.100
306.900	-5.103	0.100
307.000	6.712	0.100
307.100	-7.368	0.100
307.200	-1.130	0.100
307.300	-9.541	0.100
307.400	14.131	0.100
307.500	-10.374	0.100
307.600	2.334	0.100
307.700	7.663	0.100
307.800	5.730	0.100
307.900	-1.974	0.100
308.000	1.568	0.100
308.100	-4.870	0.100
308.200	-21.653	0.100
308.300	0.076	0.100
308.400	16.350	0.100
308.500	-17.639	0.100
308.600	-2.266	0.100
308.700	0.749	0.100
308.800	-7.352	0.100
308.900	5.183	0.100
309.000	-3.804	0.100
309.100	0.187	0.100
309.200	-7.925	0.100
309.300	-0.611	0.100
309.400	-6.623	0.100
309.500	-11.388	0.100
309.600	-4.325	0.100
309.700	3.054	0.100
309.800	5.930	0.100
309.900	-5.295	0.100
310.000	-7.964	0.100
310.100	-8.728	0.100
310.200	6.708	0.100
310.300	1.806	0.100
310.400	-13.533	0.100
310.500	4.426	0.100
310.600	-0.656	0.100
310.700	-3.509	0.100
310.800	3.984	0.100
310.900	-0.212	0.100
311.000	-0.480	0.100
311.100	-1.257	0.100
311.200	-12.960	0.100
311.300	-7.787	0.100
311.400	-6.764	0.100
311.500	-8.005	0.100
311.600	-0.577	0.100
311.700	-0.413	0.100
311.800	-11.982	0.100
311.900	-3.722	0.100
312.000	-5.202	0.100
312.100	-4.797	0.100
312.200	8.193	0.100
312.300	1.714	0.100
312.400	-1.451	0.100
312.500	-1.794	0.100
312.600	-1.806	0.100
312.700	-12.697	0.100
312.800	-1.853	0.100
312.900	1.191	0.100
313.000	6.561	0.100
313.100	-2.151	0.100
313.200	12.430	0.100
313.300	-2.032	0.100
313.400	2.346	0.100
313.500	-6.938	0.100
313.600	11.164	0.100
313.700	-5.492	0.100
313.800	7.383	0.100
313.900	-0.914	0.100
314.000	-5.033	0.100
314.100	-4.859	0.100
314.200	-2.868	0.100
314.300	-2.184	0.100
314.400	-9.645	0.100
314.500	3.229	0.100
314.600	-1.389	0.100
314.700	9.981	0.100
314.800	1.387	0.100
314.900	-0.113	0.100
315.000	4.681	0.100
315.100	-3.022	0.100
315.200	8.591	0.100
315.300	-1.119	0.100
315.400	2.158	0.100
315.500	-1.007	0.100
315.600	-0.850	0.100
315.700	5.590	0.100
315.800	-4.822	0.100
315.900	-1.378	0.100
316.000	-15.548	0.100
316.100	-1.203	0.100
316.200	2.145	0.100
316.300	-8.528	0.100
316.400	-6.796	0.100
316.500	3.708	0.100
316.600	-11.451	0.100
316.700	-9.550	0.100
316.800	2.689	0.100
316.900	-5.451	0.100
317.000	-0.361	0.100
317.100	-3.428	0.100
317.200	-4.308	0.100
317.300	-0.676	0.100
317.400	4.813	0.100
317.500	-3.661	0.100
317.600	2.035	0.100
317.700	-14.348	0.100
317.800	10.357	0.100
317.900	-0.658	0.100
318.000	2.500	0.100
318.100	-10.879	0.100
318.200	3.110	0.100
318.300	-5.385	0.100
318.400	-5.626	0.100
318.500	-2.560	0.100
318.600	4.865	0.100
318.700	-12.874	0.100
318.800	11.728	0.100
318.900	-12.887	0.100
319.000	-2.863	0.100
319.100	-12.296	0.100
319.200	1.647	0.100
319.300	5.492	0.100
319.400	-2.638	0.100
319.500	4.161	0.100
319.600	-11.013	0.100
319.700	-3.592	0.100
319.800	1.334	0.100
319.900	2.446	0.100
320.000	-5.642	0.100
320.100	-0.933	0.100
320.200	0.802	0.100
320.300	-5.314	0.100
320.400	3.048	0.100
320.500	5.508	0.100
320.600	-4.850	0.100
320.700	-14.196	0.100
320.800	1.040	0.100
320.900	-0.961	0.100
321.000	-5.629	0.100
321.100	4.855	0.100
321.200	-5.818	0.100
321.300	-1.931	0.100
321.400	2.684	0.100
321.500	-0.429	0.100
321.600	-1.477	0.100
321.700	-0.726	0.100
321.800	-2.843	0.100
321.900	-13.529	0.100
322.000	-0.492	0.100
322.100	-8.051	0.100
322.200	-1.480	0.100
322.300	-5.328	0.100
322.400	-16.659	0.100
322.500	3.170	0.100
322.600	-11.484	0.100
322.700	-1.022	0.100
322.800	-4.942	0.100
322.900	-1.636	0.100
323.000	18.839	0.100
323.100	2.514	0.100
323.200	-3.036	0.100
323.300	1.993	0.100
323.400	1.854	0.100
323.500	-25.107	0.100
323.600	8.652	0.100
323.700	-1.884	0.100
323.800	3.615	0.100
323.900	-10.360	0.100
324.000	9.345	0.100
324.100	2.529	0.100
324.200	-6.742	0.100
324.300	-2.410	0.100
324.400	-4.089	0.100
324.500	18.356	0.100
324.600	5.271	0.100
324.700	5.511	0.100
324.800	4.766	0.100
324.900	-7.950	0.100
325.000	-10.866	0.100
325.100	-2.457	0.100
325.200	5.252	0.100
325.300	-2.183	0.100
325.400	-7.180	0.100
325.500	14.293	0.100
325.600	-10.953	0.100
325.700	-3.743	0.100
325.800	9.851	0.100
325.900	-0.531	0.100
326.000	-16.035	0.100
326.100	-2.806	0.100
326.200	-0.334	0.100
326.300	-1.362	0.100
326.400	-11.257	0.100
326.500	-3.399	0.100
326.600	2.527	0.100
326.700	5.492	0.100
326.800	-0.620	0.100
326.900	4.212	0.100
327.000	-1.655	0.100
327.100	-11.930	0.100
327.200	6.335	0.100
327.300	10.949	0.100
327.400	-6.551	0.100
327.500	-18.086	0.100
327.600	-5.890	0.100
327.700	-17.250	0.100
327.800	3.554	0.100
327.900	-2.331	0.100
328.000	-1.972	0.100
328.100	5.695	0.100
328.200	-5.992	0.100
328.300	1.315	0.100
328.400	-10.998	0.100
328.500	5.919	0.100
328.600	-7.260	0.100
328.700	-1.421	0.100
328.800	6.938	0.100
328.900	-6.953	0.100
329.000	24.344	0.100
329.100	3.232	0.100
329.200	-18.271	0.100
329.300	-0.744	0.100
329.400	-20.019	0.100
329.500	1.879	0.100
329.600	-6.307	0.100
329.700	-1.798	0.100
329.800	4.152	0.100
329.900	-0.244	0.100
330.000	-20.805	0.100
330.100	-1.124	0.100
330.200	8.501	0.100
330.300	-4.690	0.100
330.400	8.075	0.100
330.500	10.612	0.100
330.600	-2.449	0.100
330.700	4.163	0.100
330.800	-5.853	0.100
330.900	-3.178	0.100
331.000	-5.594	0.100
331.100	7.114	0.100
331.200	-8.682	0.100
331.300	4.129	0.100
331.400	-22.530	0.100
331.500	4.304	0.100
331.600	-2.527	0.100
331.700	-0.284	0.100
331.800	6.333	0.100
331.900	-3.480	0.100
332.000	5.407	0.100
332.100	8.550	0.100
332.200	-2.531	0.100
332.300	5.564	0.100
332.400	-4.338	0.100
332.500	-5.438	0.100
332.600	-6.958	0.100
332.700	-0.636	0.100
332.800	3.717	0.100
332.900	-7.161	0.100
333.000	0.698	0.100
333.100	-3.297	0.100
333.200	2.835	0.100
333.300	-4.252	0.100
333.400	-12.772	0.100
333.500	12.184	0.100
333.600	8.976	0.100
333.700	-4.685	0.100
333.800	10.725	0.100
333.900	18.083	0.100
334.000	-6.689	0.100
334.100	-7.378	0.100
334.200	16.318	0.100
334.300	-1.345	0.100
334.400	-2.404	0.100
334.500	-24.482	0.100
334.600	9.788	0.100
334.700	6.134	0.100
334.800	3.695	0.100
334.900	15.119	0.100
335.000	-2.559	0.100
335.100	-9.531	0.100
335.200	-0.770	0.100
335.300	1.124	0.100
335.400	0.386	0.100
335.500	2.538	0.100
335.600	-3.276	0.100
335.700	5.938	0.100
335.800	7.124	0.100
335.900	-8.561	0.100
336.000	-0.659	0.100
336.100	3.674	0.100
336.200	1.695	0.100
336.300	5.602	0.100
336.400	-6.338	0.100
336.500	-3.300	0.100
336.600	-2.435	0.100
336.700	9.538	0.100
336.800	7.545	0.100
336.900	9.337	0.100
337.000	-3.674	0.100
337.100	8.939	0.100
337.200	13.548	0.100
337.300	-2.664	0.100
337.400	13.632	0.100
337.500	3.733	0.100
337.600	-21.532	0.100
337.700	-3.138	0.100
337.800	13.166	0.100
337.900	-7.238	0.100
338.000	6.104	0.100
338.100	3.404	0.100
338.200	-3.608	0.100
338.300	8.663	0.100
338.400	10.512	0.100
338.500	2.151	0.100
338.600	-1.221	0.100
338.700	-7.714	0.100
338.800	1.193	0.100
338.900	-5.265	0.100
339.000	4.506	0.100
339.100	-0.463	0.100
339.200	7.025	0.100
339.300	0.302	0.100
339.400	10.672	0.100
339.500	0.315	0.100
339.600	3.673	0.100
339.700	6.588	0.100
339.800	6.141	0.100
339.900	9.506	0.100
340.000	-6.626	0.100
340.100	2.282	0.100
340.200	-15.088	0.100
340.300	9.344	0.100
340.400	21.698	0.100
340.500	0.244	0.100
340.600	-5.152	0.100
340.700	2.202	0.100
340.800	9.028	0.100
340.900	17.499	0.100
341.000	4.882	0.100
341.100	3.463	0.100
341.200	10.507	0.100
341.300	3.883	0.100
341.400	-2.586	0.100
341.500	3.276	0.100
341.600	-6.968	0.100
341.700	-4.039	0.100
341.800	5.994	0.100
341.900	13.413	0.100
342.000	12.574	0.100
342.100	4.567	0.100
342.200	0.096	0.100
342.300	0.681	0.100
342.400	-13.331	0.100
342.500	0.322	0.100
342.600	-3.960	0.100
342.700	11.196	0.100
342.800	4.384	0.100
342.900	-7.140	0.100
343.000	13.776	0.100
343.100	-7.754	0.100
343.200	11.906	0.100
343.300	-1.906	0.100
343.400	-4.743	0.100
343.500	7.453	0.100
343.600	-3.825	0.100
343.700	-6.420	0.100
343.800	12.587	0.100
343.900	-7.026	0.100
344.000	-2.982	0.100
344.100	-19.145	0.100
344.200	1.768	0.100
344.300	4.401	0.100
344.400	4.996	0.100
344.500	-1.855	0.100
344.600	-8.489	0.100
344.700	2.818	0.100
344.800	9.687	0.100
344.900	-1.352	0.100
345.000	-5.441	0.100
345.100	-0.577	0.100
345.200	-1.878	0.100
345.300	8.818	0.100
345.400	6.315	0.100
345.500	16.288	0.100
345.600	-1.278	0.100
345.700	-1.312	0.100
345.800	-4.121	0.100
345.900	8.561	0.100
346.000	-3.485	0.100
346.100	9.642	0.100
346.200	6.045	0.100
346.300	-0.616	0.100
346.400	9.080	0.100
346.500	6.569	0.100
346.600	13.838	0.100
346.700	-3.421	0.100
346.800	-0.815	0.100
346.900	12.795	0.100
347.000	-5.456	0.100
347.100	19.935	0.100
347.200	8.787	0.100
347.300	-2.045	0.100
347.400	9.306	0.100
347.500	12.388	0.100
347.600	-12.752	0.100
347.700	-0.507	0.100
347.800	-0.931	0.100
347.900	4.129	0.100
348.000	5.383	0.100
348.100	11.687	0.100
348.200	-6.385	0.100
348.300	6.618	0.100
348.400	-2.947	0.100
348.500	13.794	0.100
348.600	-10.355	0.100
348.700	-4.230	0.100
348.800	9.827	0.100
348.900	-2.837	0.100
349.000	8.497	0.100
349.100	-5.071	0.100
349.200	8.277	0.100
349.300	7.935	0.100
349.400	10.242	0.100
349.500	-17.542	0.100
349.600	15.530	0.100
349.700	-21.082	0.100
349.800	8.870	0.100
349.900	3.935	0.100
350.000	1.035	0.100
350.100	4.153	0.100
350.200	12.258	0.100
350.300	-12.267	0.100
350.400	4.749	0.100
350.500	-1.315	0.100
350.600	-21.309	0.100
350.700	-3.940	0.100
350.800	6.762	0.100
350.900	4.825	0.100
351.000	14.233	0.100
351.100	1.610	0.100
351.200	-4.815	0.100
351.300	3.701	0.100
351.400	1.873	0.100
351.500	1.590	0.100
351.600	15.559	0.100
351.700	1.722	0.100
351.800	-16.755	0.100
351.900	1.267	0.100
352.000	-6.965	0.100
352.100	2.139	0.100
352.200	-7.699	0.100
352.300	-10.752	0.100
352.400	10.341	0.100
352.500	-8.039	0.100
352.600	17.824	0.100
352.700	12.196	0.100
352.800	-3.054	0.100
352.900	2.687	0.100
353.000	5.793	0.100
353.100	9.907	0.100
353.200	8.058	0.100
353.300	-3.669	0.100
353.400	-13.745	0.100
353.500	5.210	0.100
353.600	10.744	0.100
353.700	-0.233	0.100
353.800	7.226	0.100
353.900	14.949	0.100
354.000	-3.845	0.100
354.100	-5.326	0.100
354.200	-1.419	0.100
354.300	-12.382	0.100
354.400	5.007	0.100
354.500	7.201	0.100
354.600	3.529	0.100
354.700	12.794	0.100
354.800	10.516	0.100
354.900	-9.054	0.100
355.000	-16.332	0.100
355.100	2.295	0.100
355.200	2.394	0.100
355.300	-1.351	0.100
355.400	0.617	0.100
355.500	-7.265	0.100
355.600	-15.499	0.100
355.700	-3.378	0.100
355.800	9.443	0.100
355.900	9.513	0.100
356.000	7.606	0.100
356.100	-3.125	0.100
356.200	4.400	0.100
356.300	10.725	0.100
356.400	10.371	0.100
356.500	-21.148	0.100
356.600	19.999	0.100
356.700	5.420	0.100
356.800	-10.789	0.100
356.900	5.087	0.100
357.000	1.132	0.100
357.100	6.356	0.100
357.200	4.576	0.100
357.300	1.892	0.100
357.400	-17.760	0.100
357.500	7.516	0.100
357.600	-2.068	0.100
357.700	-6.318	0.100
357.800	-4.353	0.100
357.900	7.982	0.100
358.000	3.176	0.100
358.100	9.665	0.100
358.200	-7.097	0.100
358.300	6.214	0.100
358.400	3.480	0.100
358.500	5.043	0.100
358.600	6.263	0.100
358.700	-2.685	0.100
358.800	3.549	0.100
358.900	5.863	0.100
359.000	-6.319	0.100
359.100	-3.186	0.100
359.200	-3.176	0.100
359.300	3.198	0.100
359.400	-4.705	0.100
359.500	3.529	0.100
359.600	3.789	0.100
359.700	-7.943	0.100
359.800	-1.350	0.100
359.900	6.000	0.100
360.000	7.044	0.100
360.100	-16.874	0.100
360.200	4.483	0.100
360.300	6.459	0.100
360.400	-1.113	0.100
360.500	-5.112	0.100
360.600	0.384	0.100
360.700	19.063	0.100
360.800	-2.095	0.100
360.900	6.830	0.100
361.000	-1.244	0.100
361.100	-3.251	0.100
361.200	-4.518	0.100
361.300	-0.544	0.100
361.400	9.871	0.100
361.500	6.765	0.100
361.600	6.475	0.100
361.700	-8.442	0.100
361.800	-6.748	0.100
361.900	-2.925	0.100
362.000	8.106	0.100
362.100	11.565	0.100
362.200	-17.886	0.100
362.300	4.199	0.100
362.400	6.129	0.100
362.500	-0.134	0.100
362.600	-7.836	0.100
362.700	-0.974	0.100
362.800	-3.370	0.100
362.900	1.556	0.100
363.000	-10.555	0.100
363.100	3.381	0.100
363.200	2.690	0.100
363.300	7.655	0.100
363.400	5.785	0.100
363.500	-9.528	0.100
363.600	-10.180	0.100
363.700	-13.732	0.100
363.800	-3.017	0.100
363.900	1.061	0.100
364.000	-0.887	0.100
364.100	2.927	0.100
364.200	1.497	0.100
364.300	9.951	0.100
364.400	-9.346	0.100
364.500	2.258	0.100
364.600	7.706	0.100
364.700	-5.259	0.100
364.800	-5.676	0.100
364.900	1.142	0.100
365.000	0.934	0.100
365.100	3.338	0.100
365.200	-1.881	0.100
365.300	3.882	0.100
365.400	-0.302	0.100
365.500	1.920	0.100
365.600	19.985	0.100
365.700	-4.590	0.100
365.800	-9.027	0.100
365.900	8.765	0.100
366.000	3.804	0.100
366.100	-8.901	0.100
366.200	7.195	0.100
366.300	-21.318	0.100
366.400	4.717	0.100
366.500	-3.940	0.100
366.600	2.302	0.100
366.700	4.235	0.100
366.800	-13.917	0.100
366.900	13.003	0.100
367.000	13.514	0.100
367.100	-6.707	0.100
367.200	5.414	0.100
367.300	-6.183	0.100
367.400	-9.423	0.100
367.500	-0.915	0.100
367.600	7.224	0.100
367.700	3.787	0.100
367.800	-1.463	0.100
367.900	10.463	0.100
368.000	-11.726	0.100
368.100	0.944	0.100
368.200	0.127	0.100
368.300	-3.142	0.100
368.400	9.786	0.100
368.500	-5.066	0.100
368.600	9.337	0.100
368.700	-7.059	0.100
368.800	3.300	0.100
368.900	23.130	0.100
369.000	0.647	0.100
369.100	0.256	0.100
369.200	4.639	0.100
369.300	-8.471	0.100
369.400	2.005	0.100
369.500	15.589	0.100
369.600	-9.109	0.100
369.700	0.781	0.100
369.800	-10.506	0.100
369.900	-7.124	0.100
370.000	5.925	0.100
370.100	2.453	0.100
370.200	-7.490	0.100
370.300	-2.593	0.100
370.400	2.413	0.100
370.500	4.785	0.100
370.600	3.236	0.100
370.700	11.375	0.100
370.800	-5.483	0.100
370.900	3.162	0.100
371.000	-10.685	0.100
371.100	0.390	0.100
371.200	-2.911	0.100
371.300	14.317	0.100
371.400	5.560	0.100
371.500	1.709	0.100
371.600	1.935	0.100
371.700	-23.859	0.100
371.800	12.488	0.100
371.900	-4.158	0.100
372.000	5.953	0.100
372.100	-3.477	0.100
372.200	-17.198	0.100
372.300	6.489	0.100
372.400	2.764	0.100
372.500	7.248	0.100
372.600	-8.930	0.100
372.700	-2.151	0.100
372.800	2.255	0.100
372.900	-7.612	0.100
373.000	-5.145	0.100
373.100	7.067	0.100
373.200	-6.147	0.100
373.300	-4.289	0.100
373.400	-5.619	0.100
373.500	3.203	0.100
373.600	5.836	0.100
373.700	-6.835	0.100
373.800	-1.249	0.100
373.900	-5.367	0.100
374.000	4.757	0.100
374.100	-0.078	0.100
374.200	3.158	0.100
374.300	-4.421	0.100
374.400	11.350	0.100
374.500	-2.605	0.100
374.600	-9.535	0.100
374.700	4.968	0.100
374.800	-6.074	0.100
374.900	-0.976	0.100
375.000	12.027	0.100
375.100	-12.833	0.100
375.200	-7.208	0.100
375.300	7.165	0.100
375.400	3.195	0.100
375.500	12.879	0.100
375.600	0.509	0.100
375.700	-3.056	0.100
375.800	-8.048	0.100
375.900	-4.077	0.100
376.000	5.466	0.100
376.100	8.568	0.100
376.200	-13.790	0.100
376.300	-19.779	0.100
376.400	-3.137	0.100
376.500	17.970	0.100
376.600	14.442	0.100
376.700	-5.829	0.100
376.800	-11.749	0.100
376.900	5.555	0.100
377.000	-1.049	0.100
377.100	11.172	0.100
377.200	-13.644	0.100
377.300	13.060	0.100
377.400	1.883	0.100
377.500	-17.239	0.100
377.600	13.424	0.100
377.700	-1.578	0.100
377.800	-5.335	0.100
377.900	-10.509	0.100
378.000	-8.926	0.100
378.100	6.325	0.100
378.200	5.052	0.100
378.300	10.512	0.100
378.400	2.980	0.100
378.500	-5.437	0.100
378.600	-0.013	0.100
378.700	18.340	0.100
378.800	-5.348	0.100
378.900	2.789	0.100
379.000	1.069	0.100
379.100	-0.712	0.100
379.200	-1.465	0.100
379.300	-12.272	0.100
379.400	-2.617	0.100
379.500	-6.701	0.100
379.600	1.087	0.100
379.700	12.010	0.100
379.800	-5.251	0.100
379.900	8.359	0.100
380.000	-7.776	0.100
380.100	1.728	0.100
380.200	12.729	0.100
380.300	-10.148	0.100
380.400	1.020	0.100
380.500	7.312	0.100
380.600	4.220	0.100
380.700	-7.793	0.100
380.800	9.106	0.100
380.900	8.472	0.100
381.000	-7.518	0.100
381.100	-8.824	0.100
381.200	4.735	0.100
381.300	7.026	0.100
381.400	-6.854	0.100
381.500	-11.248	0.100
381.600	13.178	0.100
381.700	-5.757	0.100
381.800	-7.047	0.100
381.900	17.810	0.100
382.000	-4.728	0.100
382.100	7.034	0.100
382.200	-2.962	0.100
382.300	-4.135	0.100
382.400	9.035	0.100
382.500	-12.810	0.100
382.600	2.051	0.100
382.700	0.110	0.100
382.800	-9.990	0.100
382.900	4.477	0.100
383.000	0.552	0.100
383.100	4.928	0.100
383.200	1.083	0.100
383.300	-8.094	0.100
383.400	-6.472	0.100
383.500	5.901	0.100
383.600	0.449	0.100
383.700	-5.500	0.100
383.800	-4.696	0.100
383.900	13.185	0.100
384.000	-13.435	0.100
384.100	7.908	0.100
384.200	-7.693	0.100
384.300	14.048	0.100
384.400	-4.543	0.100
384.500	-11.999	0.100
384.600	2.076	0.100
384.700	5.968	0.100
384.800	1.360	0.100
384.900	1.825	0.100
385.000	-1.164	0.100
385.100	-9.091	0.100
385.200	13.864	0.100
385.300	5.226	0.100
385.400	2.143	0.100
385.500	5.732	0.100
385.600	-2.970	0.100
385.700	-0.385	0.100
385.800	-3.378	0.100
385.900	20.441	0.100
386.000	-2.608	0.100
386.100	3.218	0.100
386.200	12.030	0.100
386.300	1.301	0.100
386.400	-7.214	0.100
386.500	-5.511	0.100
386.600	-1.863	0.100
386.700	5.719	0.100
386.800	3.067	0.100
386.900	-13.838	0.100
387.000	-16.579	0.100
387.100	12.894	0.100
387.200	11.091	0.100
387.300	-6.393	0.100
387.400	6.228	0.100
387.500	9.252	0.100
387.600	-15.494	0.100
387.700	25.520	0.100
387.800	-3.798	0.100
387.900	-6.577	0.100
388.000	3.696	0.100
388.100	4.593	0.100
388.200	6.985	0.100
388.300	-8.448	0.100
388.400	-1.917	0.100
388.500	5.467	0.100
388.600	-0.446	0.100
388.700	-0.027	0.100
388.800	-3.492	0.100
388.900	-4.300	0.100
389.000	-13.660	0.100
389.100	4.563	0.100
389.200	-16.256	0.100
389.300	1.357	0.100
389.400	1.424	0.100
389.500	6.009	0.100
389.600	-17.542	0.100
389.700	14.648	0.100
389.800	2.109	0.100
389.900	-0.432	0.100
390.000	-1.571	0.100
390.100	4.132	0.100
390.200	10.582	0.100
390.300	9.991	0.100
390.400	-20.806	0.100
390.500	-1.456	0.100
390.600	11.186	0.100
390.700	-3.800	0.100
390.800	-2.451	0.100
390.900	2.505	0.100
391.000	-11.746	0.100
391.100	-14.975	0.100
391.200	25.004	0.100
391.300	2.980	0.100
391.400	-1.511	0.100
391.500	8.909	0.100
391.600	-0.931	0.100
391.700	3.204	0.100
391.800	-6.965	0.100
391.900	9.429	0.100
392.000	0.108	0.100
392.100	-5.481	0.100
392.200	1.867	0.100
392.300	5.152	0.100
392.400	-3.787	0.100
392.500	-5.163	0.100
392.600	0.648	0.100
392.700	-0.060	0.100
392.800	8.168	0.100
392.900	0.734	0.100
393.000	-3.948	0.100
393.100	-2.178	0.100
393.200	2.889	0.100
393.300	-7.836	0.100
393.400	-3.738	0.100
393.500	-1.230	0.100
393.600	-6.797	0.100
393.700	-15.666	0.100
393.800	-1.998	0.100
393.900	-8.291	0.100
394.000	7.313	0.100
394.100	0.859	0.100
394.200	-9.313	0.100
394.300	3.211	0.100
394.400	-8.687	0.100
394.500	11.394	0.100
394.600	-27.609	0.100
394.700	-17.729	0.100
394.800	3.585	0.100
394.900	-8.972	0.100
395.000	1.873	0.100
395.100	9.987	0.100
395.200	5.312	0.100
395.300	-22.047	0.100
395.400	-8.847	0.100
395.500	-10.634	0.100
395.600	3.540	0.100
395.700	14.460	0.100
395.800	5.951	0.100
395.900	3.386	0.100
396.000	-10.647	0.100
396.100	-12.082	0.100
396.200	12.280	0.100
396.300	3.933	0.100
396.400	-3.345	0.100
396.500	-1.916	0.100
396.600	-7.120	0.100
396.700	-12.843	0.100
396.800	0.073	0.100
396.900	-6.521	0.100
397.000	-6.465	0.100
397.100	-2.242	0.100
397.200	9.076	0.100
397.300	10.802	0.100
397.400	-14.007	0.100
397.500	3.648	0.100
397.600	-8.877	0.100
397.700	-2.933	0.100
397.800	-4.429	0.100
397.900	-12.690	0.100
398.000	-12.384	0.100
398.100	-2.207	0.100
398.200	4.074	0.100
398.300	-3.474	0.100
398.400	2.845	0.100
398.500	-6.778	0.100
398.600	2.769	0.100
398.700	-16.935	0.100
398.800	-9.052	0.100
398.900	6.495	0.100
399.000	-3.099	0.100
399.100	0.799	0.100
399.200	2.586	0.100
399.300	10.084	0.100
399.400	2.117	0.100
399.500	5.627	0.100
399.600	-2.173	0.100
399.700	-9.656	0.100
399.800	-5.243	0.100
399.900	15.380	0.100
400.000	-4.269	0.100
400.100	-0.417	0.100
400.200	-7.681	0.100
400.300	-9.770	0.100
400.400	7.711	0.100
400.500	-1.136	0.100
400.600	-11.630	0.100
400.700	-8.309	0.100
400.800	-6.363	0.100
400.900	-5.578	0.100
401.000	11.338	0.100
401.100	5.987	0.100
401.200	0.620	0.100
401.300	-14.339	0.100
401.400	-8.603	0.100
401.500	-3.912	0.100
401.600	-15.086	0.100
401.700	-14.481	0.100
401.800	3.379	0.100
401.900	-6.221	0.100
402.000	10.198	0.100
402.100	1.246	0.100
402.200	1.397	0.100
402.300	-6.137	0.100
402.400	6.890	0.100
402.500	1.721	0.100
402.600	-7.337	0.100
402.700	-3.394	0.100
402.800	-4.721	0.100
402.900	-0.004	0.100
403.000	-4.986	0.100
403.100	-7.365	0.100
403.200	5.163	0.100
403.300	-3.444	0.100
403.400	-3.856	0.100
403.500	2.901	0.100
403.600	-11.126	0.100
403.700	-10.039	0.100
403.800	-2.894	0.100
403.900	11.555	0.100
404.000	6.735	0.100
404.100	-3.634	0.100
404.200	-0.745	0.100
404.300	-5.951	0.100
404.400	-3.328	0.100
404.500	0.667	0.100
404.600	10.425	0.100
404.700	-8.387	0.100
404.800	-3.189	0.100
404.900	-0.995	0.100
405.000	-4.570	0.100
405.100	-10.514	0.100
405.200	-4.779	0.100
405.300	-2.973	0.100
405.400	-11.315	0.100
405.500	0.238	0.100
405.600	0.911	0.100
405.700	-8.349	0.100
405.800	-6.148	0.100
405.900	-5.502	0.100
406.000	3.871	0.100
406.100	6.154	0.100
406.200	10.074	0.100
406.300	-3.537	0.100
406.400	3.002	0.100
406.500	-1.335	0.100
406.600	7.653	0.100
406.700	-3.457	0.100
406.800	-0.514	0.100
406.900	-0.080	0.100
407.000	12.978	0.100
407.100	-11.906	0.100
407.200	-16.580	0.100
407.300	-7.610	0.100
407.400	-9.291	0.100
407.500	6.033	0.100
407.600	5.527	0.100
407.700	1.370	0.100
407.800	6.263	0.100
407.900	1.656	0.100
408.000	-23.896	0.100
408.100	7.465	0.100
408.200	12.626	0.100
408.300	-15.559	0.100
408.400	2.945	0.100
408.500	-23.128	0.100
408.600	-2.330	0.100
408.700	-6.915	0.100
408.800	6.945	0.100
408.900	-17.995	0.100
409.000	-2.414	0.100
409.100	4.178	0.100
409.200	-0.253	0.100
409.300	2.348	0.100
409.400	3.863	0.100
409.500	-24.059	0.100
409.600	-3.448	0.100
409.700	-8.054	0.100
409.800	11.192	0.100
409.900	12.231	0.100
410.000	-2.467	0.100
410.100	6.690	0.100
410.200	-0.493	0.100
410.300	-12.693	0.100
410.400	8.747	0.100
410.500	-10.598	0.100
410.600	11.360	0.100
410.700	6.880	0.100
410.800	12.136	0.100
410.900	-4.108	0.100
411.000	3.843	0.100
411.100	-5.589	0.100
411.200	-8.451	0.100
411.300	-4.694	0.100
411.400	-5.833	0.100
411.500	-10.056	0.100
411.600	5.892	0.100
411.700	-13.544	0.100
411.800	1.432	0.100
411.900	5.423	0.100
412.000	0.333	0.100
412.100	0.869	0.100
412.200	9.853	0.100
412.300	-2.698	0.100
412.400	-6.041	0.100
412.500	-1.079	0.100
412.600	-0.682	0.100
412.700	-9.861	0.100
412.800	-6.926	0.100
412.900	5.596	0.100
413.000	-8.852	0.100
413.100	1.390	0.100
413.200	1.430	0.100
413.300	-7.172	0.100
413.400	-12.445	0.100
413.500	9.261	0.100
413.600	-8.366	0.100
413.700	-3.933	0.100
413.800	-4.171	0.100
413.900	1.126	0.100
414.000	-0.802	0.100
414.100	4.422	0.100
414.200	5.255	0.100
414.300	-3.617	0.100
414.400	-6.943	0.100
414.500	-3.269	0.100
414.600	10.619	0.100
414.700	9.339	0.100
414.800	-1.787	0.100
414.900	5.258	0.100
415.000	6.476	0.100
415.100	-5.174	0.100
415.200	15.007	0.100
415.300	0.549	0.100
415.400	-0.532	0.100
415.500	13.838	0.100
415.600	-5.396	0.100
415.700	-11.535	0.100
415.800	-0.465	0.100
415.900	1.710	0.100
416.000	-8.807	0.100
416.100	10.533	0.100
416.200	-5.066	0.100
416.300	0.243	0.100
416.400	-7.410	0.100
416.500	1.203	0.100
416.600	-4.228	0.100
416.700	-6.979	0.100
416.800	-11.793	0.100
416.900	-4.056	0.100
417.000	-1.236	0.100
417.100	1.091	0.100
417.200	3.098	0.100
417.300	-5.168	0.100
417.400	3.760	0.100
417.500	-0.199	0.100
417.600	6.778	0.100
417.700	-8.670	0.100
417.800	1.485	0.100
417.900	-1.478	0.100
418.000	2.307	0.100
418.100	6.893	0.100
418.200	-11.009	0.100
418.300	1.343	0.100
418.400	5.830	0.100
418.500	-6.916	0.100
418.600	-10.152	0.100
418.700	-5.047	0.100
418.800	-3.302	0.100
418.900	11.747	0.100
419.000	6.981	0.100
419.100	-3.708	0.100
419.200	-7.695	0.100
419.300	-2.618	0.100
419.400	-0.123	0.100
419.500	-0.580	0.100
419.600	-5.110	0.100
419.700	6.550	0.100
419.800	2.993	0.100
419.900	-7.483	0.100
420.000	-3.037	0.100
420.100	-2.778	0.100
420.200	5.155	0.100
420.300	12.321	0.100
420.400	-17.246	0.100
420.500	-3.265	0.100
420.600	-5.751	0.100
420.700	-5.972	0.100
420.800	-4.693	0.100
420.900	6.061	0.100
421.000	4.866	0.100
421.100	-4.421	0.100
421.200	8.278	0.100
421.300	-7.777	0.100
421.400	-18.272	0.099
421.500	2.779	0.100
421.600	9.764	0.100
421.700	17.408	0.100
421.800	-8.198	0.100
421.900	2.372	0.100
422.000	-5.416	0.100
422.100	-4.369	0.100
422.200	1.093	0.100
422.300	-21.853	0.100
422.400	-4.870	0.100
422.500	2.687	0.100
422.600	0.483	0.100
422.700	1.211	0.099
422.800	2.854	0.100
422.900	3.589	0.100
423.000	4.134	0.099
423.100	-8.322	0.100
423.200	-4.116	0.099
423.300	-12.377	0.100
423.400	2.009	0.100
423.500	0.459	0.100
423.600	-7.993	0.100
423.700	12.424	0.100
423.800	5.091	0.100
423.900	-1.401	0.100
424.000	5.011	0.100
424.100	-13.101	0.099
424.200	-1.163	0.100
424.300	-9.682	0.100
424.400	7.023	0.100
424.500	12.861	0.100
424.600	-10.214	0.099
424.700	10.291	0.099
424.800	-7.093	0.100
424.900	-10.665	0.100
425.000	-9.630	0.100
425.100	14.740	0.100
425.200	-5.096	0.100
425.300	-4.744	0.100
425.400	2.412	0.100
425.500	-0.924	0.100
425.600	-16.068	0.099
425.700	-5.383	0.099
425.800	-2.446	0.099
425.900	10.048	0.100
426.000	14.843	0.100
426.100	-5.747	0.100
426.200	-0.645	0.100
426.300	10.129	0.100
426.400	-4.790	0.100
426.500	-6.281	0.100
426.600	13.224	0.099
426.700	11.555	0.100
426.800	-6.727	0.099
426.900	-11.166	0.100
427.000	-7.465	0.099
427.100	-7.173	0.099
427.200	-17.902	0.099
427.300	-2.464	0.099
427.400	10.914	0.099
427.500	14.501	0.099
427.600	-20.266	0.100
427.700	2.936	0.099
427.800	-1.584	0.100
427.900	-0.048	0.099
428.000	-0.637	0.099
428.100	3.762	0.099
428.200	-10.521	0.100
428.300	-0.147	0.099
428.400	1.932	0.099
428.500	-6.627	0.099
428.600	7.075	0.100
428.700	3.450	0.099
428.800	11.564	0.099
428.900	-9.153	0.099
429.000	5.313	0.099
429.100	-4.552	0.099
429.200	5.156	0.099
429.300	3.828	0.099
429.400	-8.170	0.099
429.500	-0.967	0.099
429.600	-6.641	0.099
429.700	-11.097	0.099
429.800	-2.167	0.099
429.900	2.611	0.099
430.000	20.748	0.100
430.100	-9.408	0.099
430.200	-2.004	0.099
430.300	-3.928	0.099
430.400	3.259	0.099
430.500	17.385	0.099
430.600	4.565	0.099
430.700	-1.616	0.099
430.800	0.169	0.099
430.900	2.241	0.099
431.000	-0.565	0.099
431.100	1.491	0.100
431.200	-5.742	0.099
431.300	-2.631	0.099
431.400	-13.711	0.099
431.500	19.729	0.099
431.600	5.252	0.099
431.700	-1.619	0.099
431.800	-24.626	0.099
431.900	-1.264	0.099
432.000	0.358	0.099
432.100	10.771	0.099
432.200	10.162	0.099
432.300	-1.332	0.099
432.400	1.933	0.099
432.500	-5.132	0.099
432.600	-1.077	0.099
432.700	-11.196	0.099
432.800	11.434	0.099
432.900	-1.235	0.099
433.000	-1.648	0.099
433.100	0.708	0.099
433.200	-5.168	0.099
433.300	-3.253	0.099
433.400	1.717	0.099
433.500	-4.065	0.099
433.600	-21.829	0.099
433.700	4.061	0.099
433.800	-7.949	0.099
433.900	6.377	0.100
434.000	2.157	0.099
434.100	7.725	0.099
434.200	-4.495	0.099
434.300	-5.764	0.099
434.400	-0.168	0.099
434.500	8.406	0.099
434.600	4.427	0.099
434.700	8.069	0.099
434.800	-2.721	0.099
434.900	-3.834	0.099
435.000	5.298	0.099
435.100	4.677	0.099
435.200	-12.072	0.099
435.300	-4.285	0.099
435.400	10.489	0.099
435.500	9.711	0.099
435.600	2.938	0.099
435.700	7.575	0.099
435.800	21.243	0.099
435.900	-4.445	0.099
436.000	-14.411	0.099
436.100	-0.833	0.099
436.200	5.506	0.099
436.300	-14.467	0.099
436.400	-4.811	0.099
436.500	5.807	0.099
436.600	1.982	0.099
436.700	3.377	0.099
436.800	6.868	0.099
436.900	-0.815	0.099
437.000	-1.013	0.099
437.100	6.199	0.099
437.200	6.237	0.099
437.300	-3.479	0.099
437.400	-3.877	0.099
437.500	4.725	0.099
437.600	5.649	0.099
437.700	-7.494	0.099
437.800	-16.581	0.099
437.900	11.213	0.099
438.000	2.816	0.099
438.100	-11.550	0.099
438.200	-9.742	0.099
438.300	18.652	0.099
438.400	-10.740	0.099
438.500	-9.410	0.099
438.600	16.997	0.099
438.700	-1.236	0.099
438.800	-5.310	0.099
438.900	-22.574	0.099
439.000	5.482	0.099
439.100	0.198	0.099
439.200	6.573	0.099
439.300	-10.390	0.099
439.400	11.993	0.099
439.500	-3.777	0.099
439.600	-4.631	0.099
439.700	1.959	0.099
439.800	4.757	0.099
439.900	7.031	0.099
440.000	-1.610	0.099
440.100	0.121	0.099
440.200	3.582	0.099
440.300	9.456	0.099
440.400	-9.389	0.099
440.500	2.011	0.099
440.600	-5.428	0.099
440.700	-1.198	0.099
440.800	-4.188	0.099
440.900	-7.394	0.099
441.000	-10.539	0.099
441.100	3.578	0.099
441.200	3.075	0.099
441.300	9.023	0.099
441.400	-5.933	0.099
441.500	-12.084	0.099
441.600	7.904	0.099
441.700	5.604	0.099
441.800	0.378	0.099
441.900	0.970	0.099
442.000	1.538	0.099
442.100	-13.764	0.099
442.200	4.206	0.099
442.300	-4.009	0.099
442.400	-12.515	0.099
442.500	0.106	0.099
442.600	2.009	0.099
442.700	0.369	0.099
442.800	4.582	0.099
442.900	0.518	0.099
443.000	2.388	0.099
443.100	2.343	0.099
443.200	-11.833	0.099
443.300	3.086	0.099
443.400	0.012	0.099
443.500	0.993	0.099
443.600	1.830	0.099
443.700	-0.818	0.099
443.800	-0.014	0.099
443.900	-2.959	0.099
444.000	-6.596	0.099
444.100	7.771	0.099
444.200	14.919	0.099
444.300	-0.366	0.099
444.400	-10.788	0.099
444.500	1.493	0.099
444.600	10.713	0.099
444.700	-2.890	0.099
444.800	-7.602	0.099
444.900	6.087	0.099
445.000	4.014	0.099
445.100	0.077	0.099
445.200	-5.927	0.099
445.300	2.974	0.099
445.400	1.606	0.099
445.500	10.918	0.099
445.600	-11.333	0.099
445.700	1.907	0.099
445.800	0.231	0.099
445.900	0.815	0.099
446.000	-4.773	0.099
446.100	1.904	0.099
446.200	-4.792	0.099
446.300	-3.573	0.099
446.400	6.259	0.099
446.500	-6.785	0.099
446.600	9.066	0.099
446.700	10.518	0.099
446.800	0.081	0.099
446.900	0.431	0.099
447.000	3.031	0.099
447.100	-18.360	0.099
447.200	0.640	0.099
447.300	-7.880	0.099
447.400	16.806	0.099
447.500	5.315	0.099
447.600	-1.327	0.099
447.700	-6.105	0.099
447.800	0.554	0.099
447.900	4.195	0.099
448.000	-3.253	0.099
448.100	16.405	0.099
448.200	-2.389	0.099
448.300	15.343	0.099
448.400	-4.462	0.099
448.500	7.332	0.099
448.600	-14.611	0.099
448.700	7.895	0.099
448.800	15.890	0.099
448.900	4.955	0.099
449.000	-9.462	0.099
449.100	-3.688	0.099
449.200	-4.152	0.099
449.300	-11.988	0.099
449.400	2.150	0.099
449.500	-5.824	0.099
449.600	1.454	0.099
449.700	5.216	0.099
449.800	-8.871	0.099
449.900	2.377	0.099
450.000	25.123	0.099
450.100	18.830	0.099
450.200	-11.702	0.099
450.300	-5.591	0.099
450.400	14.611	0.099
450.500	-0.329	0.099
450.600	-3.239	0.099
450.700	2.654	0.099
450.800	14.005	0.099
450.900	6.185	0.099
451.000	5.958	0.099
451.100	3.176	0.099
451.200	-2.148	0.099
451.300	4.698	0.099
451.400	-10.513	0.099
451.500	1.285	0.099
451.600	12.464	0.099
451.700	4.239	0.099
451.800	-11.961	0.099
451.900	-0.083	0.099
452.000	0.560	0.099
452.100	-8.236	0.099
452.200	19.700	0.099
452.300	10.117	0.099
452.400	-2.666	0.099
452.500	-5.648	0.099
452.600	-5.974	0.099
452.700	3.297	0.099
452.800	8.700	0.099
452.900	5.307	0.099
453.000	0.939	0.099
453.100	-2.299	0.099
453.200	9.958	0.099
453.300	-1.050	0.099
453.400	-3.484	0.099
453.500	3.732	0.099
453.600	11.555	0.099
453.700	7.795	0.099
453.800	7.941	0.099
453.900	-5.564	0.099
454.000	-9.138	0.099
454.100	-6.578	0.099
454.200	5.671	0.099
454.300	-6.829	0.099
454.400	7.378	0.099
454.500	4.606	0.099
454.600	15.021	0.099
454.700	-1.454	0.099
454.800	8.579	0.099
454.900	9.647	0.099
455.000	12.274	0.099
455.100	5.278	0.099
455.200	-10.806	0.099
455.300	-0.507	0.099
455.400	-0.675	0.099
455.500	0.096	0.099
455.600	5.521	0.099
455.700	-1.041	0.099
455.800	2.180	0.099
455.900	8.531	0.099
456.000	-5.471	0.099
456.100	-6.430	0.099
456.200	10.579	0.099
456.300	4.435	0.099
456.400	2.936	0.099
456.500	7.397	0.099
456.600	6.246	0.099
456.700	0.488	0.099
456.800	5.034	0.099
456.900	7.083	0.099
457.000	0.385	0.099
457.100	-2.346	0.099
457.200	-6.689	0.099
457.300	5.880	0.099
457.400	-20.444	0.099
457.500	2.005	0.099
457.600	-4.403	0.099
457.700	2.173	0.099
457.800	7.641	0.099
457.900	6.936	0.099
458.000	4.681	0.099
458.100	1.544	0.099
458.200	-8.836	0.099
458.300	5.661	0.099
458.400	-11.036	0.099
458.500	-6.402	0.099
458.600	0.998	0.099
458.700	9.317	0.099
458.800	-4.482	0.099
458.900	-6.085	0.099
459.000	-3.589	0.099
459.100	-8.062	0.099
459.200	-14.045	0.099
459.300	14.891	0.099
459.400	4.029	0.099
459.500	-7.122	0.099
459.600	3.324	0.099
459.700	-5.138	0.099
459.800	-5.715	0.099
459.900	-6.573	0.099
460.000	-3.156	0.099
460.100	4.937	0.099
460.200	0.446	0.099
460.300	-4.807	0.099
460.400	3.111	0.099
460.500	-0.430	0.099
460.600	-10.369	0.099
460.700	-1.786	0.099
460.800	4.751	0.099
460.900	11.808	0.099
461.000	9.774	0.099
461.100	4.669	0.099
461.200	-4.333	0.099
461.300	-0.230	0.099
461.400	11.244	0.099
461.500	-0.688	0.099
461.600	-0.489	0.099
461.700	9.992	0.099
461.800	-0.751	0.099
461.900	6.338	0.099
462.000	2.132	0.099
462.100	-3.413	0.099
462.200	1.098	0.099
462.300	-3.561	0.099
462.400	4.992	0.099
462.500	-6.868	0.099
462.600	0.958	0.099
462.700	2.719	0.099
462.800	3.847	0.099
462.900	10.726	0.099
463.000	-0.723	0.099
463.100	-1.011	0.099
463.200	2.263	0.099
463.300	7.934	0.099
463.400	-12.470	0.099
463.500	4.032	0.099
463.600	12.861	0.099
463.700	-9.456	0.099
463.800	-19.194	0.099
463.900	9.329	0.099
464.000	3.663	0.099
464.100	5.219	0.099
464.200	13.891	0.099
464.300	-0.951	0.099
464.400	9.807	0.099
464.500	5.143	0.099
464.600	-13.233	0.099
464.700	7.057	0.099
464.800	-7.350	0.099
464.900	4.959	0.099
465.000	-0.543	0.099
465.100	-10.484	0.099
465.200	-2.296	0.099
465.300	5.208	0.099
465.400	-5.758	0.099
465.500	-14.068	0.099
465.600	9.032	0.099
465.700	5.161	0.099
465.800	-0.753	0.099
465.900	-13.844	0.099
466.000	5.236	0.099
466.100	5.335	0.099
466.200	-5.395	0.099
466.300	3.951	0.099
466.400	-1.344	0.099
466.500	6.955	0.099
466.600	-27.691	0.099
466.700	-13.355	0.099
466.800	18.819	0.099
466.900	5.911	0.099
467.000	-1.209	0.099
467.100	4.538	0.099
467.200	-3.350	0.099
467.300	1.551	0.099
467.400	-6.263	0.099
467.500	-9.603	0.099
467.600	19.510	0.099
467.700	3.554	0.099
467.800	-2.401	0.099
467.900	0.991	0.099
468.000	11.747	0.099
468.100	6.939	0.099
468.200	7.022	0.099
468.300	-6.768	0.099
468.400	-3.209	0.099
468.500	-15.603	0.099
468.600	5.188	0.099
468.700	5.317	0.099
468.800	-0.835	0.099
468.900	-1.062	0.099
469.000	5.386	0.099
469.100	6.311	0.099
469.200	-1.054	0.099
469.300	-4.066	0.099
469.400	-10.548	0.099
469.500	3.690	0.099
469.600	5.385	0.099
469.700	10.200	0.099
469.800	-13.274	0.099
469.900	4.126	0.099
470.000	-0.342	0.099
470.100	7.365	0.099
470.200	15.506	0.099
470.300	-4.442	0.099
470.400	-8.404	0.099
470.500	1.350	0.099
470.600	0.707	0.099
470.700	2.455	0.099
470.800	-6.926	0.099
470.900	7.449	0.099
471.000	-14.509	0.099
471.100	11.282	0.099
471.200	2.640	0.099
471.300	-16.847	0.099
471.400	8.718	0.099
471.500	1.489	0.099
471.600	-1.455	0.099
471.700	10.892	0.099
471.800	10.494	0.099
471.900	2.234	0.099
472.000	6.360	0.099
472.100	-5.793	0.099
472.200	3.301	0.099
472.300	3.922	0.099
472.400	-2.763	0.099
472.500	4.792	0.099
472.600	5.647	0.099
472.700	-13.134	0.099
472.800	0.548	0.099
472.900	-17.764	0.099
473.000	3.941	0.099
473.100	15.546	0.099
473.200	18.092	0.099
473.300	-0.049	0.099
473.400	-2.280	0.099
473.500	3.973	0.099
473.600	-4.582	0.099
473.700	-7.562	0.099
473.800	4.891	0.099
473.900	8.567	0.099
474.000	13.951	0.099
474.100	-4.678	0.099
474.200	1.220	0.099
474.300	-5.989	0.099
474.400	6.231	0.099
474.500	0.159	0.099
474.600	7.927	0.099
474.700	7.503	0.099
474.800	-1.989	0.099
474.900	9.628	0.099
475.000	-3.967	0.099
475.100	-2.535	0.099
475.200	11.168	0.099
475.300	10.303	0.099
475.400	-0.521	0.099
475.500	-0.535	0.099
475.600	6.235	0.099
475.700	9.989	0.099
475.800	0.673	0.099
475.900	-0.219	0.099
476.000	3.467	0.099
476.100	-4.073	0.099
476.200	-5.610	0.099
476.300	-9.489	0.099
476.400	-8.338	0.099
476.500	5.127	0.099
476.600	20.636	0.099
476.700	5.093	0.099
476.800	-2.056	0.099
476.900	-14.728	0.099
477.000	-20.861	0.099
477.100	8.164	0.099
477.200	1.900	0.099
477.300	-1.350	0.099
477.400	6.448	0.099
477.500	-2.026	0.099
477.600	18.957	0.099
477.700	-1.849	0.099
477.800	11.093	0.099
477.900	1.559	0.099
478.000	11.001	0.099
478.100	-5.788	0.099
478.200	-18.423	0.099
478.300	4.794	0.099
478.400	4.421	0.099
478.500	-16.516	0.099
478.600	3.925	0.099
478.700	6.724	0.099
478.800	-2.590	0.099
478.900	4.958	0.099
479.000	1.014	0.099
479.100	-2.279	0.099
479.200	6.923	0.099
479.300	-5.943	0.099
479.400	-8.019	0.099
479.500	18.379	0.099
479.600	10.041	0.099
479.700	6.674	0.099
479.800	4.279	0.099
479.900	-9.465	0.099
480.000	14.586	0.099
480.100	5.117	0.099
480.200	-3.499	0.099
480.300	2.131	0.099
480.400	3.424	0.099
480.500	-11.146	0.099
480.600	5.607	0.099
480.700	-0.763	0.099
480.800	2.260	0.099
480.900	-10.873	0.099
481.000	13.395	0.099
481.100	1.606	0.099
481.200	2.963	0.099
481.300	-8.183	0.099
481.400	23.507	0.099
481.500	0.820	0.099
481.600	11.003	0.099
481.700	0.061	0.099
481.800	-3.949	0.099
481.900	1.504	0.099
482.000	11.847	0.099
482.100	0.769	0.099
482.200	4.901	0.099
482.300	12.756	0.099
482.400	5.621	0.099
482.500	-2.619	0.099
482.600	1.139	0.099
482.700	12.623	0.099
482.800	-0.338	0.099
482.900	14.124	0.099
483.000	-3.532	0.099
483.100	-11.158	0.099
483.200	3.801	0.099
483.300	13.118	0.099
483.400	12.368	0.099
483.500	2.460	0.099
483.600	-3.114	0.099
483.700	17.415	0.099
483.800	-5.256	0.099
483.900	-2.900	0.099
484.000	0.542	0.099
484.100	-1.996	0.099
484.200	-6.560	0.099
484.300	14.566	0.099
484.400	-2.183	0.099
484.500	4.150	0.099
484.600	23.177	0.099
484.700	6.356	0.099
484.800	4.640	0.099
484.900	9.213	0.099
485.000	-16.332	0.099
485.100	11.128	0.099
485.200	-12.338	0.099
485.300	6.956	0.099
485.400	3.966	0.099
485.500	7.280	0.099
485.600	13.616	0.099
485.700	5.905	0.099
485.800	3.146	0.099
485.900	8.796	0.099
486.000	-1.867	0.099
486.100	0.672	0.099
486.200	-6.016	0.099
486.300	8.624	0.099
486.400	0.998	0.099
486.500	2.428	0.099
486.600	2.176	0.099
486.700	3.611	0.099
486.800	-6.847	0.099
486.900	5.137	0.099
487.000	17.557	0.099
487.100	-1.235	0.099
487.200	1.514	0.099
487.300	6.891	0.099
487.400	11.780	0.099
487.500	7.610	0.099
487.600	-3.699	0.099
487.700	1.470	0.099
487.800	-0.834	0.099
487.900	-3.782	0.099
488.000	7.600	0.099
488.100	17.315	0.099
488.200	11.906	0.099
488.300	4.283	0.099
488.400	-8.354	0.099
488.500	-0.583	0.099
488.600	0.569	0.099
488.700	12.856	0.099
488.800	11.104	0.099
488.900	10.374	0.099
489.000	-3.780	0.099
489.100	-1.432	0.099
489.200	-8.946	0.099
489.300	18.839	0.099
489.400	-2.035	0.099
489.500	1.174	0.099
489.600	1.064	0.099
489.700	12.706	0.099
489.800	10.278	0.099
489.900	9.143	0.099
490.000	-1.383	0.099
490.100	2.658	0.099
490.200	14.650	0.099
490.300	1.005	0.099
490.400	-2.368	0.099
490.500	7.143	0.099
490.600	17.619	0.099
490.700	-0.364	0.099
490.800	7.106	0.099
490.900	11.362	0.099
491.000	-5.017	0.099
491.100	-0.720	0.099
491.200	3.850	0.100
491.300	-11.216	0.100
491.400	10.190	0.100
491.500	1.169	0.100
491.600	11.111	0.100
491.700	13.314	0.100
491.800	-3.939	0.100
491.900	3.545	0.100
492.000	-10.110	0.100
492.100	0.923	0.100
492.200	10.762	0.100
492.300	-0.017	0.100
492.400	8.216	0.100
492.500	1.815	0.100
492.600	6.234	0.100
492.700	8.270	0.100
492.800	5.588	0.100
492.900	-1.303	0.100
493.000	2.237	0.100
493.100	11.626	0.100
493.200	1.786	0.100
493.300	1.578	0.100
493.400	0.586	0.100
493.500	-3.319	0.100
493.600	13.106	0.100
493.700	16.049	0.100
493.800	-2.337	0.100
493.900	0.923	0.100
494.000	4.508	0.100
494.100	4.677	0.100
494.200	10.672	0.100
494.300	5.637	0.100
494.400	21.549	0.100
494.500	7.591	0.100
494.600	12.878	0.100
494.700	6.462	0.100
494.800	0.341	0.100
494.900	24.718	0.100
495.000	2.705	0.100
495.100	11.420	0.100
495.200	2.620	0.100
495.300	-4.545	0.100
495.400	4.946	0.100
495.500	8.206	0.100
495.600	11.650	0.100
495.700	-6.954	0.100
495.800	17.096	0.100
495.900	12.700	0.100
496.000	5.522	0.100
496.100	9.365	0.100
496.200	-10.285	0.100
496.300	8.840	0.100
496.400	0.462	0.100
496.500	-14.379	0.100
496.600	3.297	0.100
496.700	18.233	0.100
496.800	10.967	0.100
496.900	16.381	0.100
497.000	-3.998	0.100
497.100	0.715	0.100
497.200	0.870	0.100
497.300	-2.439	0.100
497.400	2.693	0.100
497.500	19.747	0.100
497.600	16.906	0.100
497.700	2.868	0.100
497.800	6.775	0.100
497.900	7.715	0.100
498.000	14.992	0.100
498.100	7.618	0.100
498.200	6.810	0.100
498.300	12.075	0.100
498.400	3.088	0.100
498.500	-2.225	0.100
498.600	13.094	0.100
498.700	3.163	0.100
498.800	3.698	0.100
498.900	-1.633	0.100
499.000	-4.937	0.100
499.100	-3.849	0.100
499.200	17.448	0.100
499.300	12.624	0.100
499.400	16.445	0.100
499.500	1.647	0.100
499.600	-5.137	0.100
499.700	13.230	0.100
499.800	-3.480	0.100
499.900	13.558	0.100
500.000	12.649	0.100
500.100	11.532	0.100
500.200	3.120	0.100
500.300	-4.307	0.100
500.400	15.882	0.100
500.500	-3.498	0.100
500.600	13.610	0.100
500.700	3.041	0.100
500.800	-7.814	0.100
500.900	-18.339	0.100
501.000	15.785	0.100
501.100	5.129	0.100
501.200	28.227	0.100
501.300	1.405	0.100
501.400	15.995	0.100
501.500	10.802	0.100
501.600	-0.345	0.100
501.700	4.004	0.100
501.800	3.026	0.100
501.900	9.094	0.100
502.000	16.935	0.100
502.100	2.008	0.100
502.200	8.172	0.100
502.300	6.303	0.100
502.400	-2.224	0.100
502.500	1.843	0.100
502.600	12.857	0.100
502.700	-2.590	0.100
502.800	7.625	0.100
502.900	-8.709	0.100
503.000	5.521	0.100
503.100	19.912	0.100
503.200	16.072	0.100
503.300	2.136	0.100
503.400	0.303	0.100
503.500	2.692	0.100
503.600	-8.833	0.100
503.700	5.186	0.100
503.800	-2.983	0.100
503.900	-11.417	0.100
504.000	6.156	0.100
504.100	-3.812	0.100
504.200	4.509	0.100
504.300	3.425	0.100
504.400	4.781	0.100
504.500	9.271	0.100
504.600	23.606	0.100
504.700	8.777	0.100
504.800	8.700	0.100
504.900	-2.929	0.100
505.000	-5.995	0.100
505.100	5.307	0.100
505.200	0.902	0.100
505.300	13.380	0.100
505.400	-4.331	0.100
505.500	19.953	0.100
505.600	-2.372	0.100
505.700	10.007	0.100
505.800	-2.470	0.100
505.900	3.100	0.100
506.000	15.404	0.100
506.100	7.930	0.100
506.200	4.333	0.100
506.300	11.675	0.100
506.400	8.130	0.100
506.500	3.277	0.100
506.600	16.263	0.100
506.700	2.855	0.100
506.800	18.245	0.100
506.900	-12.291	0.100
507.000	13.541	0.100
507.100	16.345	0.100
507.200	-3.931	0.100
507.300	1.070	0.100
507.400	-4.789	0.100
507.500	-3.375	0.100
507.600	9.373	0.100
507.700	18.677	0.100
507.800	15.759	0.100
507.900	5.520	0.100
508.000	11.851	0.100
508.100	1.330	0.100
508.200	9.518	0.100
508.300	4.523	0.100
508.400	16.962	0.100
508.500	1.140	0.100
508.600	12.587	0.100
508.700	11.757	0.100
508.800	1.162	0.100
508.900	8.745	0.100
509.000	-14.309	0.100
509.100	3.574	0.100
509.200	13.099	0.100
509.300	0.290	0.100
509.400	-2.336	0.100
509.500	12.575	0.100
509.600	0.806	0.100
509.700	3.143	0.100
509.800	6.906	0.100
509.900	13.091	0.100
510.000	-4.994	0.100
510.100	7.195	0.100
510.200	25.109	0.100
510.300	11.000	0.100
510.400	8.126	0.100
510.500	20.968	0.100
510.600	13.976	0.100
510.700	-8.294	0.100
510.800	8.781	0.100
510.900	0.431	0.100
511.000	15.555	0.100
511.100	12.118	0.100
511.200	12.703	0.100
511.300	1.192	0.100
511.400	3.112	0.100
511.500	-11.188	0.100
511.600	-0.344	0.100
511.700	7.231	0.100
511.800	7.514	0.100
511.900	2.515	0.100
512.000	-4.068	0.100
512.100	2.101	0.100
512.200	-6.218	0.100
512.300	7.886	0.100
512.400	6.182	0.100
512.500	18.264	0.100
512.600	-3.460	0.100
512.700	16.748	0.100
512.800	13.516	0.100
512.900	0.125	0.100
513.000	-2.366	0.100
513.100	12.855	0.100
513.200	1.261	0.100
513.300	-11.301	0.100
513.400	15.133	0.100
513.500	-8.679	0.100
513.600	-6.517	0.100
513.700	8.747	0.100
513.800	19.275	0.100
513.900	16.992	0.100
514.000	7.265	0.100
514.100	11.071	0.100
514.200	7.864	0.100
514.300	4.521	0.100
514.400	-1.430	0.100
514.500	10.513	0.100
514.600	11.218	0.100
514.700	-1.399	0.100
514.800	1.803	0.100
514.900	14.315	0.100
515.000	-5.123	0.100
515.100	7.133	0.100
515.200	7.980	0.100
515.300	-6.564	0.100
515.400	-4.613	0.100
515.500	-8.688	0.100
515.600	2.855	0.100
515.700	0.172	0.100
515.800	2.024	0.100
515.900	8.850	0.100
516.000	4.552	0.100
516.100	12.764	0.100
516.200	3.839	0.100
516.300	-18.630	0.100
516.400	20.328	0.100
516.500	-0.606	0.100
516.600	-5.065	0.100
516.700	14.681	0.100
516.800	10.554	0.100
516.900	6.510	0.100
517.000	10.725	0.100
517.100	-4.219	0.100
517.200	12.386	0.100
517.300	9.649	0.100
517.400	-6.435	0.100
517.500	12.419	0.100
517.600	-3.270	0.100
517.700	-2.201	0.100
517.800	2.462	0.100
517.900	5.886	0.100
518.000	12.557	0.100
518.100	3.941	0.100
518.200	11.685	0.100
518.300	-0.563	0.100
518.400	4.949	0.100
518.500	-3.957	0.100
518.600	4.885	0.100
518.700	5.339	0.100
518.800	7.205	0.100
518.900	0.260	0.100
519.000	10.345	0.100
519.100	-2.217	0.100
519.200	3.587	0.100
519.300	10.775	0.100
519.400	-3.807	0.100
519.500	16.389	0.100
519.600	-2.343	0.100
519.700	6.860	0.100
519.800	1.740	0.100
519.900	5.641	0.100
520.000	6.785	0.100
520.100	4.737	0.100
520.200	17.776	0.100
520.300	-12.055	0.100
520.400	1.364	0.100
520.500	-0.121	0.100
520.600	19.808	0.100
520.700	7.321	0.100
520.800	16.164	0.100
520.900	-6.322	0.100
521.000	-3.852	0.100
521.100	-6.933	0.100
521.200	22.337	0.100
521.300	1.983	0.100
521.400	8.521	0.100
521.500	2.274	0.100
521.600	17.930	0.100
521.700	-1.583	0.100
521.800	3.772	0.100
521.900	5.699	0.100
522.000	7.678	0.100
522.100	-10.900	0.100
522.200	9.650	0.100
522.300	7.433	0.100
522.400	8.412	0.100
522.500	6.165	0.100
522.600	8.739	0.100
522.700	0.573	0.100
522.800	6.019	0.100
522.900	6.638	0.100
523.000	8.189	0.100
523.100	-5.867	0.100
523.200	9.193	0.100
523.300	1.050	0.100
523.400	17.470	0.100
523.500	-2.449	0.100
523.600	6.458	0.100
523.700	14.941	0.100
523.800	9.350	0.100
523.900	0.139	0.100
524.000	1.368	0.100
524.100	12.116	0.100
524.200	3.298	0.100
524.300	16.156	0.100
524.400	-2.356	0.100
524.500	4.261	0.100
524.600	-2.337	0.100
524.700	7.517	0.100
524.800	1.813	0.100
524.900	19.314	0.100
525.000	-2.084	0.100
525.100	2.360	0.100
525.200	2.269	0.100
525.300	4.809	0.100
525.400	-0.546	0.100
525.500	16.272	0.100
525.600	-0.829	0.100
525.700	-14.317	0.100
525.800	0.349	0.100
525.900	-0.778	0.100
526.000	13.959	0.100
526.100	15.449	0.100
526.200	-1.604	0.100
526.300	5.706	0.100
526.400	4.986	0.100
526.500	6.829	0.100
526.600	-4.479	0.100
526.700	-0.586	0.100
526.800	15.462	0.100
526.900	13.983	0.100
527.000	-8.565	0.100
527.100	-1.663	0.100
527.200	10.585	0.100
527.300	10.283	0.100
527.400	1.174	0.100
527.500	6.602	0.100
527.600	5.468	0.100
527.700	7.667	0.100
527.800	6.376	0.100
527.900	-0.948	0.100
528.000	4.199	0.100
528.100	0.556	0.100
528.200	5.125	0.100
528.300	-7.298	0.100
528.400	-5.635	0.100
528.500	7.926	0.100
528.600	17.553	0.100
528.700	-5.838	0.100
528.800	5.335	0.100
528.900	-0.423	0.100
529.000	-24.671	0.100
529.100	0.087	0.100
529.200	9.100	0.100
529.300	12.077	0.100
529.400	-0.126	0.100
529.500	-26.074	0.100
529.600	-1.545	0.100
529.700	16.897	0.100
529.800	8.418	0.100
529.900	10.228	0.100
530.000	-7.675	0.100
530.100	10.783	0.100
530.200	-21.850	0.100
530.300	19.193	0.100
530.400	-3.870	0.100
530.500	7.147	0.100
530.600	10.444	0.100
530.700	17.272	0.100
530.800	4.159	0.100
530.900	-5.185	0.100
531.000	24.796	0.100
531.100	1.835	0.100
531.200	8.476	0.100
531.300	-4.590	0.100
531.400	7.353	0.100
531.500	14.577	0.100
531.600	2.331	0.100
531.700	4.308	0.100
531.800	13.191	0.100
531.900	-0.998	0.100
532.000	10.015	0.100
532.100	6.088	0.100
532.200	-5.709	0.100
532.300	-7.093	0.100
532.400	5.073	0.100
532.500	17.081	0.100
532.600	-11.065	0.100
532.700	14.944	0.100
532.800	-11.601	0.100
532.900	6.616	0.100
533.000	2.043	0.100
533.100	7.522	0.100
533.200	14.159	0.100
533.300	25.953	0.100
533.400	15.606	0.100
533.500	7.377	0.100
533.600	9.150	0.100
533.700	5.146	0.100
533.800	-12.826	0.100
533.900	14.662	0.100
534.000	2.088	0.100
534.100	2.065	0.100
534.200	-4.489	0.100
534.300	6.682	0.100
534.400	6.031	0.100
534.500	-9.136	0.100
534.600	0.267	0.100
534.700	-1.408	0.100
534.800	8.291	0.100
534.900	16.659	0.100
535.000	12.683	0.100
535.100	7.492	0.100
535.200	0.967	0.100
535.300	17.202	0.100
535.400	4.976	0.100
535.500	9.708	0.100
535.600	0.320	0.100
535.700	-7.173	0.100
535.800	12.690	0.100
535.900	-0.885	0.100
536.000	-7.097	0.100
536.100	3.289	0.100
536.200	3.973	0.100
536.300	5.894	0.100
536.400	-1.568	0.100
536.500	-9.100	0.100
536.600	-10.497	0.100
536.700	13.231	0.100
536.800	-2.539	0.100
536.900	7.049	0.100
537.000	10.723	0.100
537.100	10.144	0.100
537.200	6.316	0.100
537.300	3.940	0.100
537.400	-7.419	0.100
537.500	0.595	0.100
537.600	6.125	0.100
537.700	6.368	0.100
537.800	9.962	0.100
537.900	14.604	0.100
538.000	-11.203	0.100
538.100	11.623	0.100
538.200	15.010	0.100
538.300	3.852	0.100
538.400	-5.010	0.100
538.500	-0.441	0.100
538.600	14.470	0.100
538.700	-5.370	0.100
538.800	12.537	0.100
538.900	12.363	0.100
539.000	2.039	0.100
539.100	10.639	0.100
539.200	8.818	0.100
539.300	3.631	0.100
539.400	9.275	0.100
539.500	16.720	0.100
539.600	4.024	0.100
539.700	0.713	0.100
539.800	2.017	0.100
539.900	0.116	0.100
540.000	-0.897	0.100
540.100	8.306	0.100
540.200	7.288	0.100
540.300	17.921	0.100
540.400	-6.793	0.100
540.500	7.351	0.100
540.600	8.195	0.100
540.700	6.845	0.100
540.800	-4.103	0.100
540.900	0.229	0.100
541.000	-2.499	0.100
541.100	8.207	0.100
541.200	17.475	0.100
541.300	-4.257	0.100
541.400	10.415	0.100
541.500	2.940	0.100
541.600	-2.174	0.100
541.700	3.263	0.100
541.800	-0.128	0.100
541.900	13.267	0.100
542.000	4.011	0.100
542.100	1.306	0.100
542.200	10.664	0.100
542.300	-4.458	0.100
542.400	10.406	0.100
542.500	17.058	0.100
542.600	4.185	0.100
542.700	3.985	0.100
542.800	4.089	0.100
542.900	-7.641	0.100
543.000	9.565	0.100
543.100	5.096	0.100
543.200	-4.304	0.100
543.300	-14.525	0.100
543.400	3.209	0.100
543.500	5.819	0.100
543.600	0.862	0.100
543.700	15.950	0.100
543.800	-2.776	0.100
543.900	8.532	0.100
544.000	-4.619	0.100
544.100	-4.639	0.100
544.200	22.585	0.100
544.300	5.367	0.100
544.400	-2.916	0.100
544.500	4.964	0.100
544.600	6.229	0.100
544.700	3.952	0.100
544.800	5.182	0.100
544.900	6.788	0.100
545.000	3.996	0.100
545.100	1.123	0.100
545.200	3.379	0.100
545.300	1.907	0.100
545.400	7.852	0.100
545.500	-6.922	0.100
545.600	-6.911	0.100
545.700	17.076	0.100
545.800	5.509	0.100
545.900	-9.070	0.100
546.000	-1.773	0.100
546.100	9.486	0.100
546.200	7.091	0.100
546.300	1.962	0.100
546.400	-4.345	0.100
546.500	3.450	0.100
546.600	1.568	0.100
546.700	0.824	0.100
546.800	7.435	0.100
546.900	-3.788	0.100
547.000	-9.159	0.100
547.100	6.028	0.100
547.200	-10.903	0.100
547.300	-1.464	0.100
547.400	-1.789	0.100
547.500	4.364	0.100
547.600	5.074	0.100
547.700	-3.664	0.100
547.800	9.777	0.100
547.900	-9.371	0.100
548.000	9.805	0.100
548.100	14.928	0.100
548.200	3.392	0.100
548.300	-10.667	0.100
548.400	-11.422	0.100
548.500	20.262	0.100
548.600	4.194	0.100
548.700	-6.424	0.100
548.800	4.214	0.100
548.900	12.099	0.100
549.000	-8.348	0.100
549.100	-13.195	0.100
549.200	10.410	0.100
549.300	5.693	0.100
549.400	7.254	0.100
549.500	1.481	0.100
549.600	-0.494	0.100
549.700	-2.966	0.100
549.800	-4.188	0.100
549.900	-1.884	0.100
550.000	-8.169	0.100
550.100	-13.021	0.100
550.200	11.176	0.100
550.300	6.822	0.100
550.400	21.108	0.100
550.500	2.767	0.100
550.600	-8.365	0.100
550.700	0.730	0.100
550.800	24.808	0.100
550.900	-3.808	0.100
551.000	-11.021	0.100
551.100	-11.577	0.100
551.200	0.583	0.100
551.300	-1.181	0.100
551.400	5.737	0.100
551.500	0.654	0.100
551.600	-2.695	0.100
551.700	10.247	0.100
551.800	-21.744	0.100
551.900	5.291	0.100
552.000	8.805	0.100
552.100	-1.289	0.100
552.200	-7.620	0.100
552.300	-2.768	0.100
552.400	6.937	0.100
552.500	0.188	0.100
552.600	-17.647	0.100
552.700	-0.564	0.100
552.800	-5.105	0.100
552.900	5.380	0.100
553.000	9.906	0.100
553.100	7.207	0.100
553.200	-0.628	0.100
553.300	2.509	0.100
553.400	-4.225	0.100
553.500	8.575	0.100
553.600	0.245	0.100
553.700	-10.049	0.100
553.800	2.465	0.100
553.900	-4.864	0.100
554.000	3.652	0.100
554.100	2.963	0.100
554.200	-16.500	0.100
554.300	18.604	0.100
554.400	-0.349	0.100
554.500	1.968	0.100
554.600	-2.431	0.100
554.700	-9.189	0.100
554.800	-13.423	0.100
554.900	16.106	0.100
555.000	0.719	0.100
555.100	15.987	0.100
555.200	-2.817	0.100
555.300	7.412	0.100
555.400	5.517	0.100
555.500	6.024	0.100
555.600	0.773	0.100
555.700	-4.029	0.100
555.800	-4.875	0.100
555.900	11.881	0.100
556.000	0.975	0.100
556.100	0.215	0.100
556.200	-12.738	0.100
556.300	-0.867	0.100
556.400	2.600	0.100
556.500	2.759	0.100
556.600	6.088	0.100
556.700	8.661	0.100
556.800	-17.803	0.100
556.900	8.625	0.100
557.000	5.875	0.100
557.100	-3.703	0.100
557.200	2.431	0.100
557.300	2.515	0.100
557.400	9.298	0.100
557.500	7.168	0.100
557.600	7.978	0.100
557.700	-1.304	0.100
557.800	-9.202	0.100
557.900	-9.498	0.100
558.000	-4.569	0.100
558.100	1.654	0.100
558.200	4.636	0.100
558.300	-1.914	0.100
558.400	-2.564	0.100
558.500	-1.904	0.100
558.600	8.768	0.100
558.700	-7.518	0.100
558.800	-3.892	0.100
558.900	-0.018	0.100
559.000	4.049	0.100
559.100	11.082	0.100
559.200	-4.681	0.100
559.300	-7.294	0.100
559.400	-2.414	0.100
559.500	-7.106	0.100
559.600	10.254	0.100
559.700	7.006	0.100
559.800	-1.490	0.100
559.900	6.878	0.100
560.000	-15.664	0.100
560.100	-2.828	0.100
560.200	1.820	0.100
560.300	10.935	0.100
560.400	-1.265	0.100
560.500	-7.020	0.100
560.600	-18.713	0.100
560.700	6.525	0.100
560.800	14.425	0.100
560.900	12.415	0.100
561.000	4.749	0.100
561.100	15.519	0.100
561.200	3.320	0.100
561.300	-8.063	0.100
561.400	7.594	0.100
561.500	11.293	0.100
561.600	9.107	0.100
561.700	-10.726	0.100
561.800	6.950	0.100
561.900	-4.808	0.100
562.000	5.343	0.100
562.100	11.872	0.100
562.200	-13.654	0.100
562.300	3.689	0.100
562.400	4.472	0.100
562.500	2.401	0.100
562.600	-2.800	0.100
562.700	15.647	0.100
562.800	-3.120	0.100
562.900	2.883	0.100
563.000	4.643	0.100
563.100	0.576	0.100
563.200	-3.369	0.100
563.300	16.975	0.100
563.400	-0.687	0.100
563.500	-24.346	0.100
563.600	11.000	0.100
563.700	14.340	0.100
563.800	-7.342	0.100
563.900	-13.038	0.100
564.000	10.735	0.100
564.100	11.451	0.100
564.200	0.458	0.100
564.300	1.472	0.100
564.400	-4.029	0.100
564.500	1.860	0.100
564.600	7.170	0.100
564.700	-9.792	0.100
564.800	3.104	0.100
564.900	-10.572	0.100
565.000	12.399	0.100
565.100	-11.786	0.100
565.200	6.244	0.100
565.300	-13.053	0.100
565.400	4.856	0.100
565.500	13.793	0.100
565.600	9.367	0.100
565.700	19.803	0.100
565.800	-5.475	0.100
565.900	-2.937	0.100
566.000	1.964	0.100
566.100	-4.691	0.100
566.200	-2.385	0.100
566.300	1.767	0.100
566.400	-0.095	0.100
566.500	-0.215	0.100
566.600	-16.919	0.100
566.700	12.435	0.100
566.800	-1.624	0.100
566.900	-17.083	0.100
567.000	8.443	0.100
567.100	9.646	0.100
567.200	3.366	0.100
567.300	1.529	0.100
567.400	8.666	0.100
567.500	-5.399	0.100
567.600	-7.410	0.100
567.700	0.267	0.100
567.800	2.422	0.100
567.900	5.431	0.100
568.000	5.334	0.100
568.100	4.901	0.100
568.200	6.912	0.100
568.300	-2.142	0.100
568.400	6.431	0.100
568.500	-1.502	0.100
568.600	4.495	0.100
568.700	6.725	0.100
568.800	1.016	0.100
568.900	9.138	0.100
569.000	0.246	0.100
569.100	11.487	0.100
569.200	-4.348	0.100
569.300	11.941	0.100
569.400	2.488	0.100
569.500	-2.408	0.100
569.600	3.148	0.100
569.700	6.183	0.100
569.800	-5.214	0.100
569.900	9.972	0.100
570.000	-1.122	0.100
570.100	-2.632	0.100
570.200	9.460	0.100
570.300	-0.891	0.100
570.400	2.232	0.100
570.500	2.893	0.100
570.600	10.715	0.100
570.700	-0.417	0.100
570.800	2.976	0.100
570.900	1.034	0.100
571.000	7.725	0.100
571.100	-13.898	0.100
571.200	11.343	0.100
571.300	3.050	0.100
571.400	1.167	0.100
571.500	-1.155	0.100
571.600	13.721	0.100
571.700	-2.327	0.100
571.800	3.432	0.100
571.900	-16.258	0.100
572.000	11.402	0.100
572.100	5.445	0.100
572.200	1.813	0.100
572.300	5.291	0.100
572.400	14.823	0.100
572.500	10.039	0.100
572.600	-8.379	0.100
572.700	3.881	0.100
572.800	10.270	0.100
572.900	-5.896	0.100
573.000	-2.008	0.100
573.100	9.887	0.100
573.200	2.514	0.100
573.300	2.070	0.100
573.400	-15.966	0.100
573.500	4.618	0.100
573.600	10.789	0.100
573.700	-17.870	0.100
573.800	7.879	0.100
573.900	-9.696	0.100
574.000	16.964	0.100
574.100	-0.161	0.100
574.200	12.100	0.100
574.300	-3.282	0.100
574.400	0.248	0.100
574.500	10.411	0.100
574.600	-15.781	0.100
574.700	8.386	0.100
574.800	4.903	0.100
574.900	4.925	0.100
575.000	-7.420	0.100
575.100	-9.239	0.100
575.200	10.944	0.100
575.300	-1.043	0.100
575.400	4.907	0.100
575.500	1.763	0.100
575.600	4.986	0.100
575.700	-8.996	0.100
575.800	5.096	0.100
575.900	13.080	0.100
576.000	24.442	0.100
576.100	-3.576	0.100
576.200	-0.880	0.100
576.300	11.802	0.100
576.400	-15.461	0.100
576.500	-5.885	0.100
576.600	14.792	0.100
576.700	13.847	0.100
576.800	-4.684	0.100
576.900	1.446	0.100
577.000	-2.214	0.100
577.100	3.587	0.100
577.200	-8.103	0.100
577.300	-0.500	0.100
577.400	11.257	0.100
577.500	15.828	0.100
577.600	9.920	0.100
577.700	-13.716	0.100
577.800	10.030	0.100
577.900	15.512	0.100
578.000	-12.371	0.100
578.100	8.754	0.100
578.200	2.793	0.100
578.300	5.368	0.100
578.400	-12.819	0.100
578.500	8.148	0.100
578.600	-2.760	0.100
578.700	2.224	0.100
578.800	3.492	0.100
578.900	-6.142	0.100
579.000	14.508	0.100
579.100	4.384	0.100
579.200	5.261	0.100
579.300	-2.413	0.100
579.400	-0.240	0.100
579.500	3.491	0.100
579.600	3.961	0.100
579.700	14.949	0.100
579.800	2.719	0.100
579.900	9.732	0.100
580.000	-6.553	0.100
580.100	11.138	0.100
580.200	9.935	0.100
580.300	3.609	0.100
580.400	13.005	0.100
580.500	10.354	0.100
580.600	6.986	0.100
580.700	-4.840	0.100
580.800	7.557	0.100
580.900	0.661	0.100
581.000	-2.418	0.100
581.100	2.684	0.100
581.200	8.982	0.100
581.300	10.824	0.100
581.400	-18.535	0.100
581.500	9.305	0.100
581.600	8.451	0.100
581.700	-7.047	0.100
581.800	-4.166	0.100
581.900	-16.866	0.100
582.000	-4.982	0.100
582.100	13.988	0.100
582.200	-10.946	0.100
582.300	-1.152	0.100
582.400	8.686	0.100
582.500	-2.636	0.100
582.600	-5.531	0.100
582.700	4.130	0.100
582.800	10.329	0.100
582.900	-7.974	0.100
583.000	0.173	0.100
583.100	-1.270	0.100
583.200	18.796	0.100
583.300	-5.053	0.100
583.400	1.339	0.100
583.500	7.458	0.100
583.600	7.671	0.100
583.700	2.723	0.100
583.800	12.073	0.100
583.900	6.388	0.100
584.000	14.985	0.100
584.100	6.803	0.100
584.200	-18.432	0.100
584.300	-0.056	0.100
584.400	20.954	0.100
584.500	6.894	0.100
584.600	-10.236	0.100
584.700	7.571	0.100
584.800	14.321	0.100
584.900	2.465	0.100
585.000	3.346	0.100
585.100	3.610	0.100
585.200	1.226	0.100
585.300	9.786	0.100
585.400	-4.898	0.100
585.500	18.703	0.100
585.600	-8.013	0.100
585.700	-6.120	0.100
585.800	10.520	0.100
585.900	5.940	0.100
586.000	-3.526	0.100
586.100	14.301	0.100
586.200	-4.163	0.100
586.300	-4.013	0.100
586.400	-0.811	0.100
586.500	-5.465	0.100
586.600	8.075	0.100
586.700	2.245	0.100
586.800	-8.311	0.100
586.900	1.636	0.100
587.000	-5.121	0.100
587.100	2.061	0.100
587.200	-9.959	0.100
587.300	14.037	0.100
587.400	7.210	0.100
587.500	9.095	0.100
587.600	0.636	0.100
587.700	7.255	0.100
587.800	5.825	0.100
587.900	5.593	0.100
588.000	22.157	0.100
588.100	-4.843	0.100
588.200	7.569	0.100
588.300	9.480	0.100
588.400	-2.149	0.100
588.500	8.509	0.100
588.600	0.661	0.100
588.700	6.007	0.100
588.800	3.911	0.100
588.900	-8.690	0.100
589.000	9.692	0.100
589.100	3.102	0.100
589.200	4.843	0.100
589.300	12.524	0.100
589.400	1.669	0.100
589.500	4.966	0.100
589.600	-5.099	0.100
589.700	-14.544	0.100
589.800	6.365	0.100
589.900	6.068	0.100
590.000	10.738	0.100
590.100	4.593	0.100
590.200	-4.508	0.100
590.300	11.195	0.100
590.400	-0.752	0.100
590.500	1.462	0.100
590.600	4.295	0.100
590.700	3.732	0.100
590.800	24.306	0.100
590.900	2.215	0.100
591.000	11.764	0.100
591.100	12.555	0.100
591.200	-1.471	0.100
591.300	3.262	0.100
591.400	18.590	0.100
591.500	2.112	0.100
591.600	-8.750	0.100
591.700	0.683	0.100
591.800	0.556	0.100
591.900	11.292	0.100
592.000	-1.404	0.100
592.100	3.547	0.100
592.200	0.374	0.100
592.300	0.077	0.100
592.400	8.566	0.100
592.500	4.301	0.100
592.600	-6.993	0.100
592.700	-4.487	0.100
592.800	20.433	0.100
592.900	-12.194	0.100
593.000	15.305	0.100
593.100	-7.640	0.100
593.200	6.765	0.100
593.300	5.660	0.100
593.400	-3.498	0.100
593.500	-5.518	0.100
593.600	11.865	0.100
593.700	-5.323	0.100
593.800	2.085	0.100
593.900	5.835	0.100
594.000	6.223	0.100
594.100	17.025	0.100
594.200	-0.528	0.100
594.300	-6.059	0.100
594.400	4.488	0.100
594.500	20.828	0.100
594.600	-1.031	0.100
594.700	-3.376	0.100
594.800	-4.126	0.100
594.900	-0.304	0.100
595.000	-2.123	0.100
595.100	-5.123	0.100
595.200	7.338	0.100
595.300	-3.305	0.100
595.400	6.907	0.100
595.500	14.551	0.100
595.600	4.701	0.100
595.700	4.392	0.100
595.800	2.910	0.100
595.900	5.294	0.100
596.000	-2.964	0.100
596.100	-8.474	0.100
596.200	19.315	0.100
596.300	13.517	0.100
596.400	-0.673	0.100
596.500	-4.755	0.100
596.600	1.301	0.100
596.700	9.205	0.100
596.800	-7.407	0.100
596.900	-6.560	0.100
597.000	7.600	0.100
597.100	11.285	0.100
597.200	-5.029	0.100
597.300	17.769	0.100
597.400	-3.600	0.100
597.500	0.049	0.100
597.600	2.538	0.100
597.700	4.778	0.100
597.800	-5.456	0.100
597.900	6.641	0.100
598.000	17.033	0.100
598.100	3.086	0.100
598.200	8.865	0.100
598.300	3.891	0.100
598.400	-6.162	0.100
598.500	7.263	0.100
598.600	9.006	0.100
598.700	-11.710	0.100
598.800	5.296	0.100
598.900	1.421	0.100
599.000	15.258	0.100
599.100	2.221	0.100
599.200	-1.344	0.100
599.300	-6.853	0.100
599.400	2.096	0.100
599.500	6.603	0.100
599.600	-1.172	0.100
599.700	15.819	0.100
599.800	7.079	0.100
599.900	-0.441	0.100
600.000	4.494	0.100
600.100	-5.431	0.100
600.200	9.508	0.100
600.300	19.554	0.100
600.400	0.447	0.100
600.500	8.629	0.100
600.600	5.109	0.100
600.700	13.022	0.100
600.800	-7.679	0.100
600.900	17.054	0.100
601.000	8.720	0.100
601.100	11.498	0.100
601.200	-6.603	0.100
601.300	-2.070	0.100
601.400	-3.970	0.100
601.500	1.780	0.100
601.600	1.145	0.100
601.700	2.783	0.100
601.800	17.923	0.100
601.900	10.535	0.100
602.000	6.103	0.100
602.100	7.854	0.100
602.200	3.244	0.100
602.300	15.411	0.100
602.400	4.234	0.100
602.500	6.121	0.100
602.600	6.212	0.100
602.700	-0.673	0.100
602.800	0.513	0.100
602.900	-0.442	0.100
603.000	-0.285	0.100
603.100	1.926	0.100
603.200	11.027	0.100
603.300	11.850	0.100
603.400	10.495	0.100
603.500	6.743	0.100
603.600	-3.952	0.100
603.700	18.772	0.100
603.800	-0.242	0.100
603.900	12.899	0.100
604.000	7.105	0.100
604.100	1.742	0.100
604.200	-11.867	0.100
604.300	15.030	0.100
604.400	3.069	0.100
604.500	0.258	0.100
604.600	7.378	0.100
604.700	19.511	0.100
604.800	-2.397	0.100
604.900	11.873	0.100
605.000	-1.847	0.100
605.100	7.267	0.100
605.200	7.269	0.100
605.300	2.579	0.100
605.400	-8.469	0.100
605.500	1.882	0.100
605.600	1.887	0.100
605.700	2.230	0.100
605.800	1.993	0.100
605.900	6.320	0.100
606.000	5.412	0.100
606.100	14.318	0.100
606.200	-3.103	0.100
606.300	0.501	0.100
606.400	1.155	0.100
606.500	-12.698	0.100
606.600	6.890	0.100
606.700	13.213	0.100
606.800	-5.199	0.100
606.900	14.058	0.100
607.000	0.366	0.100
607.100	4.228	0.100
607.200	-10.234	0.100
607.300	7.513	0.100
607.400	8.869	0.100
607.500	17.301	0.100
607.600	13.873	0.100
607.700	-3.731	0.100
607.800	-9.381	0.100
607.900	-8.226	0.100
608.000	12.792	0.100
608.100	-2.084	0.100
608.200	5.920	0.100
608.300	12.946	0.100
608.400	-0.196	0.100
608.500	0.637	0.100
608.600	-5.749	0.100
608.700	6.275	0.100
608.800	-7.252	0.100
608.900	3.265	0.100
609.000	-0.274	0.100
609.100	-10.863	0.100
609.200	7.085	0.100
609.300	13.499	0.100
609.400	2.463	0.100
609.500	12.970	0.100
609.600	9.438	0.100
609.700	-1.053	0.100
609.800	-1.106	0.100
609.900	13.316	0.100
610.000	-1.739	0.100
610.100	14.078	0.100
610.200	-0.837	0.100
610.300	7.303	0.100
610.400	-4.956	0.100
610.500	-1.124	0.100
610.600	11.644	0.100
610.700	-9.246	0.100
610.800	24.404	0.100
610.900	-2.498	0.100
611.000	3.661	0.100
611.100	8.376	0.100
611.200	4.880	0.100
611.300	-0.465	0.100
611.400	19.564	0.100
611.500	-5.938	0.100
611.600	2.537	0.100
611.700	2.747	0.100
611.800	9.392	0.100
611.900	16.184	0.100
612.000	13.540	0.100
612.100	0.402	0.100
612.200	-2.215	0.100
612.300	7.345	0.100
612.400	6.779	0.100
612.500	-3.372	0.100
612.600	-5.616	0.100
612.700	7.735	0.100
612.800	8.805	0.100
612.900	6.196	0.100
613.000	-13.835	0.100
613.100	-1.151	0.100
613.200	9.672	0.100
613.300	10.638	0.100
613.400	-6.152	0.100
613.500	22.557	0.100
613.600	4.273	0.100
613.700	9.371	0.100
613.800	9.688	0.100
613.900	6.068	0.100
614.000	11.722	0.100
614.100	-11.641	0.100
614.200	5.974	0.100
614.300	3.633	0.100
614.400	9.839	0.100
614.500	10.510	0.100
614.600	-10.441	0.100
614.700	6.864	0.100
614.800	11.002	0.100
614.900	17.959	0.100
615.000	8.937	0.100
615.100	0.614	0.100
615.200	-3.171	0.100
615.300	10.968	0.100
615.400	-4.851	0.100
615.500	25.728	0.100
615.600	-4.990	0.100
615.700	15.365	0.100
615.800	11.940	0.100
615.900	12.143	0.100
616.000	-11.741	0.100
616.100	-2.732	0.100
616.200	-0.161	0.100
616.300	19.513	0.100
616.400	-3.911	0.100
616.500	18.576	0.100
616.600	6.225	0.100
616.700	-2.453	0.100
616.800	5.483	0.100
616.900	0.890	0.100
617.000	12.709	0.100
617.100	4.782	0.100
617.200	8.181	0.100
617.300	5.901	0.100
617.400	2.155	0.100
617.500	13.239	0.100
617.600	9.940	0.100
617.700	10.132	0.100
617.800	3.160	0.100
617.900	7.848	0.100
618.000	-3.021	0.100
618.100	-1.323	0.100
618.200	-6.557	0.100
618.300	6.723	0.100
618.400	-0.879	0.100
618.500	-0.182	0.100
618.600	6.224	0.100
618.700	15.240	0.100
618.800	-1.388	0.100
618.900	-6.032	0.100
619.000	7.164	0.100
619.100	-5.836	0.100
619.200	4.233	0.100
619.300	17.770	0.100
619.400	14.692	0.100
619.500	5.080	0.100
619.600	10.240	0.100
619.700	5.973	0.100
619.800	2.957	0.100
619.900	-1.101	0.100
620.000	1.992	0.100
620.100	-2.248	0.100
620.200	11.373	0.100
620.300	6.029	0.100
620.400	-2.226	0.100
620.500	-3.487	0.100
620.600	2.059	0.100
620.700	12.093	0.100
620.800	6.206	0.100
620.900	14.472	0.100
621.000	-0.383	0.100
621.100	-6.785	0.100
621.200	15.121	0.100
621.300	7.668	0.100
621.400	4.416	0.100
621.500	8.531	0.100
621.600	1.685	0.100
621.700	5.916	0.100
621.800	11.716	0.100
621.900	16.828	0.100
622.000	3.537	0.100
622.100	9.105	0.100
622.200	5.583	0.100
622.300	2.631	0.100
622.400	16.161	0.100
622.500	-8.308	0.100
622.600	8.317	0.100
622.700	8.977	0.100
622.800	-5.836	0.100
622.900	-3.381	0.100
623.000	3.910	0.100
623.100	10.922	0.100
623.200	3.290	0.100
623.300	1.971	0.100
623.400	-3.140	0.100
623.500	6.885	0.100
623.600	10.260	0.100
623.700	7.932	0.100
623.800	4.770	0.100
623.900	9.825	0.100
624.000	-7.542	0.100
624.100	2.483	0.100
624.200	3.985	0.100
624.300	-3.823	0.100
624.400	4.606	0.100
624.500	4.879	0.100
624.600	11.807	0.100
624.700	11.058	0.100
624.800	-7.646	0.100
624.900	1.937	0.100
625.000	3.887	0.100
625.100	0.014	0.100
625.200	6.542	0.100
625.300	5.251	0.100
625.400	-1.516	0.100
625.500	13.687	0.100
625.600	0.244	0.100
625.700	5.155	0.100
625.800	6.668	0.100
625.900	4.689	0.100
626.000	4.609	0.100
626.100	6.087	0.100
626.200	-0.352	0.100
626.300	16.577	0.100
626.400	8.897	0.100
626.500	-8.265	0.100
626.600	13.966	0.100
626.700	12.702	0.100
626.800	5.603	0.100
626.900	5.892	0.100
627.000	3.301	0.100
627.100	-8.616	0.100
627.200	3.134	0.100
627.300	17.045	0.100
627.400	16.308	0.100
627.500	4.327	0.100
627.600	-4.624	0.100
627.700	11.448	0.100
627.800	-2.743	0.100
627.900	5.991	0.100
628.000	4.204	0.100
628.100	-9.360	0.100
628.200	0.194	0.100
628.300	11.897	0.100
628.400	1.215	0.100
628.500	7.998	0.100
628.600	7.303	0.100
628.700	3.033	0.100
628.800	13.401	0.100
628.900	-8.173	0.100
629.000	8.406	0.100
629.100	10.048	0.100
629.200	0.789	0.100
629.300	-2.884	0.100
629.400	7.294	0.100
629.500	2.933	0.100
629.600	10.819	0.100
629.700	3.249	0.100
629.800	-2.162	0.100
629.900	-17.493	0.100
630.000	-1.458	0.100
630.100	1.711	0.100
630.200	14.313	0.100
630.300	12.507	0.100
630.400	-1.756	0.100
630.500	7.139	0.100
630.600	15.380	0.100
630.700	9.502	0.100
630.800	13.558	0.100
630.900	2.173	0.100
631.000	-9.962	0.100
631.100	12.285	0.100
631.200	7.582	0.100
631.300	8.613	0.100
631.400	-0.836	0.100
631.500	20.287	0.100
631.600	-0.836	0.100
631.700	16.233	0.100
631.800	0.446	0.100
631.900	14.559	0.100
632.000	3.974	0.100
632.100	2.166	0.100
632.200	14.193	0.100
632.300	12.831	0.100
632.400	-1.917	0.100
632.500	14.277	0.100
632.600	11.373	0.100
632.700	0.579	0.100
632.800	20.482	0.100
632.900	15.559	0.100
633.000	0.393	0.100
633.100	2.303	0.100
633.200	2.106	0.100
633.300	-0.560	0.100
633.400	7.746	0.100
633.500	-0.540	0.100
633.600	6.687	0.100
633.700	5.456	0.100
633.800	10.462	0.100
633.900	15.020	0.100
634.000	-0.881	0.100
634.100	2.422	0.100
634.200	9.304	0.100
634.300	17.058	0.100
634.400	17.200	0.100
634.500	2.850	0.100
634.600	-9.063	0.100
634.700	20.405	0.100
634.800	4.958	0.100
634.900	17.346	0.100
635.000	14.039	0.100
635.100	-1.202	0.100
635.200	-1.398	0.100
635.300	14.253	0.100
635.400	13.704	0.100
635.500	-2.114	0.100
635.600	-3.383	0.100
635.700	22.015	0.100
635.800	-0.676	0.100
635.900	0.099	0.100
636.000	7.694	0.100
636.100	-5.339	0.100
636.200	30.540	0.100
636.300	15.748	0.100
636.400	0.516	0.100
636.500	17.920	0.100
636.600	13.274	0.100
636.700	3.684	0.100
636.800	10.841	0.100
636.900	3.772	0.100
637.000	13.866	0.100
637.100	14.090	0.100
637.200	10.783	0.100
637.300	15.607	0.100
637.400	10.725	0.100
637.500	8.406	0.100
637.600	3.984	0.100
637.700	6.915	0.100
637.800	7.992	0.100
637.900	11.813	0.100
638.000	19.280	0.100
638.100	9.784	0.100
638.200	17.248	0.100
638.300	-1.403	0.100
638.400	9.742	0.100
638.500	-2.544	0.100
638.600	3.616	0.100
638.700	12.626	0.100
638.800	2.719	0.100
638.900	10.056	0.100
639.000	-0.178	0.100
639.100	1.057	0.100
639.200	10.444	0.100
639.300	8.919	0.100
639.400	-0.644	0.100
639.500	5.283	0.100
639.600	19.699	0.100
639.700	8.035	0.100
639.800	23.776	0.100
639.900	6.435	0.100
640.000	8.243	0.100
640.100	7.721	0.100
640.200	4.910	0.100
640.300	8.965	0.100
640.400	-1.492	0.100
640.500	0.682	0.100
640.600	6.244	0.100
640.700	-11.438	0.100
640.800	17.446	0.100
640.900	2.631	0.100
641.000	10.883	0.100
641.100	0.488	0.100
641.200	22.940	0.100
641.300	2.365	0.100
641.400	0.214	0.100
641.500	1.607	0.100
641.600	2.201	0.100
641.700	5.690	0.100
641.800	9.983	0.100
641.900	4.639	0.100
642.000	21.972	0.100
642.100	-0.679	0.100
642.200	10.715	0.100
642.300	15.333	0.100
642.400	8.600	0.100
642.500	-3.836	0.100
642.600	21.761	0.100
642.700	7.425	0.100
642.800	0.924	0.100
642.900	10.131	0.100
643.000	16.289	0.100
643.100	4.775	0.100
643.200	8.751	0.100
643.300	7.421	0.100
643.400	22.533	0.100
643.500	6.007	0.100
643.600	2.898	0.100
643.700	1.059	0.100
643.800	-8.776	0.100
643.900	10.473	0.100
644.000	17.182	0.100
644.100	16.431	0.100
644.200	-2.561	0.100
644.300	3.743	0.100
644.400	15.101	0.100
644.500	2.070	0.100
644.600	6.797	0.100
644.700	12.552	0.100
644.800	-3.592	0.100
644.900	10.286	0.100
645.000	3.878	0.100
645.100	13.266	0.100
645.200	-1.442	0.100
645.300	7.584	0.100
645.400	25.683	0.100
645.500	4.208	0.100
645.600	7.408	0.100
645.700	0.043	0.100
645.800	6.194	0.100
645.900	-7.048	0.100
646.000	11.385	0.100
646.100	18.739	0.100
646.200	11.640	0.100
646.300	-7.477	0.100
646.400	7.092	0.100
646.500	10.398	0.100
646.600	1.039	0.100
646.700	17.740	0.100
646.800	20.610	0.100
646.900	-2.331	0.100
647.000	11.059	0.100
647.100	0.757	0.100
647.200	8.304	0.100
647.300	11.335	0.100
647.400	17.567	0.100
647.500	13.054	0.100
647.600	-10.724	0.100
647.700	8.023	0.100
647.800	0.035	0.100
647.900	10.666	0.100
648.000	10.475	0.100
648.100	7.468	0.100
648.200	1.660	0.100
648.300	16.316	0.100
648.400	11.592	0.100
648.500	0.350	0.100
648.600	14.022	0.100
648.700	-5.818	0.100
648.800	-4.756	0.100
648.900	13.668	0.100
649.000	17.447	0.100
649.100	4.400	0.100
649.200	3.175	0.100
649.300	8.186	0.100
649.400	21.849	0.100
649.500	-1.066	0.100
649.600	5.014	0.100
649.700	6.543	0.100
649.800	13.737	0.100
649.900	-4.093	0.100
650.000	22.528	0.100
650.100	16.191	0.100
650.200	20.559	0.100
650.300	17.605	0.100
650.400	3.660	0.100
650.500	18.203	0.100
650.600	15.804	0.100
650.700	10.320	0.100
650.800	11.385	0.100
650.900	9.270	0.100
651.000	17.764	0.100
651.100	4.465	0.100
651.200	-12.667	0.100
651.300	-2.002	0.100
651.400	-1.530	0.100
651.500	10.699	0.100
651.600	15.064	0.100
651.700	9.628	0.100
651.800	-3.098	0.100
651.900	4.877	0.100
652.000	7.986	0.100
652.100	9.245	0.100
652.200	1.462	0.100
652.300	8.666	0.100
652.400	18.168	0.100
652.500	-8.646	0.100
652.600	16.544	0.100
652.700	9.903	0.100
652.800	8.331	0.100
652.900	21.495	0.100
653.000	12.865	0.100
653.100	0.268	0.100
653.200	8.651	0.100
653.300	-5.846	0.100
653.400	3.579	0.100
653.500	0.270	0.100
653.600	3.022	0.100
653.700	11.621	0.100
653.800	24.683	0.100
653.900	9.198	0.100
654.000	13.700	0.100
654.100	4.961	0.100
654.200	7.580	0.100
654.300	10.590	0.100
654.400	6.903	0.100
654.500	10.419	0.100
654.600	3.839	0.100
654.700	5.177	0.100
654.800	0.405	0.100
654.900	7.980	0.100
655.000	4.053	0.100
655.100	-0.116	0.100
655.200	7.678	0.100
655.300	27.987	0.100
655.400	8.086	0.100
655.500	8.112	0.100
655.600	2.309	0.100
655.700	9.757	0.100
655.800	16.210	0.100
655.900	6.133	0.100
656.000	9.422	0.100
656.100	8.979	0.100
656.200	11.871	0.100
656.300	13.291	0.100
656.400	-12.310	0.100
656.500	14.201	0.100
656.600	4.776	0.100
656.700	18.034	0.100
656.800	5.436	0.100
656.900	7.301	0.100
657.000	5.690	0.100
657.100	23.949	0.100
657.200	0.958	0.100
657.300	-1.727	0.100
657.400	17.406	0.100
657.500	12.303	0.100
657.600	16.636	0.100
657.700	9.083	0.100
657.800	24.821	0.100
657.900	14.958	0.100
658.000	5.008	0.100
658.100	-6.242	0.100
658.200	18.909	0.100
658.300	5.826	0.100
658.400	17.933	0.100
658.500	2.829	0.100
658.600	-1.904	0.100
658.700	7.976	0.100
658.800	2.270	0.100
658.900	15.229	0.100
659.000	-1.437	0.100
659.100	4.217	0.100
659.200	9.546	0.100
659.300	7.461	0.100
659.400	10.389	0.100
659.500	-3.056	0.100
659.600	16.119	0.100
659.700	-0.327	0.100
659.800	11.371	0.100
659.900	-8.885	0.100
660.000	7.195	0.100
660.100	-7.814	0.100
660.200	23.156	0.100
660.300	20.039	0.100
660.400	17.413	0.100
660.500	0.582	0.100
660.600	-3.872	0.100
660.700	11.559	0.100
660.800	8.731	0.100
660.900	9.300	0.100
661.000	20.417	0.100
661.100	5.890	0.100
661.200	7.477	0.100
661.300	9.255	0.100
661.400	20.377	0.100
661.500	3.845	0.100
661.600	-7.856	0.100
661.700	-0.865	0.100
661.800	1.915	0.100
661.900	18.657	0.100
662.000	-3.812	0.100
662.100	6.388	0.100
662.200	-3.329	0.100
662.300	8.459	0.100
662.400	2.641	0.100
662.500	15.556	0.100
662.600	9.032	0.100
662.700	6.839	0.100
662.800	12.596	0.100
662.900	12.556	0.100
663.000	7.207	0.100
663.100	11.975	0.100
663.200	-2.703	0.100
663.300	13.689	0.100
663.400	-4.617	0.100
663.500	23.168	0.100
663.600	8.445	0.100
663.700	-2.506	0.100
663.800	-1.288	0.100
663.900	18.295	0.100
664.000	-3.361	0.100
664.100	5.810	0.100
664.200	14.124	0.100
664.300	13.144	0.100
664.400	12.292	0.100
664.500	3.834	0.100
664.600	5.721	0.100
664.700	9.046	0.100
664.800	16.775	0.100
664.900	6.248	0.100
665.000	6.406	0.100
665.100	8.728	0.100
665.200	12.707	0.100
665.300	9.061	0.100
665.400	-1.015	0.100
665.500	6.488	0.100
665.600	12.498	0.100
665.700	9.245	0.100
665.800	1.554	0.100
665.900	7.025	0.100
666.000	6.151	0.100
666.100	7.516	0.100
666.200	14.095	0.100
666.300	-11.681	0.100
666.400	19.823	0.100
666.500	21.038	0.100
666.600	-0.311	0.100
666.700	4.957	0.100
666.800	4.875	0.100
666.900	7.946	0.100
667.000	-0.627	0.100
667.100	22.115	0.100
667.200	16.327	0.100
667.300	7.322	0.100
667.400	6.986	0.100
667.500	15.873	0.100
667.600	1.960	0.100
667.700	11.138	0.100
667.800	4.926	0.100
667.900	11.226	0.100
668.000	-9.399	0.100
668.100	3.439	0.100
668.200	1.563	0.100
668.300	11.998	0.100
668.400	8.972	0.100
668.500	14.493	0.100
668.600	2.259	0.100
668.700	-0.595	0.100
668.800	-1.422	0.100
668.900	6.850	0.100
669.000	-1.369	0.100
669.100	14.591	0.100
669.200	8.280	0.100
669.300	12.395	0.100
669.400	10.133	0.100
669.500	2.953	0.100
669.600	8.629	0.100
669.700	9.114	0.100
669.800	18.334	0.100
669.900	-4.848	0.100
670.000	-5.299	0.100
670.100	2.087	0.100
670.200	2.318	0.100
670.300	6.612	0.100
670.400	4.316	0.100
670.500	10.921	0.100
670.600	4.109	0.100
670.700	6.442	0.100
670.800	12.001	0.100
670.900	7.153	0.100
671.000	7.894	0.100
671.100	9.474	0.100
671.200	0.113	0.100
671.300	0.524	0.100
671.400	4.990	0.100
671.500	-5.740	0.100
671.600	19.249	0.100
671.700	5.319	0.100
671.800	-8.025	0.100
671.900	24.894	0.100
672.000	10.854	0.100
672.100	-4.674	0.100
672.200	-2.097	0.100
672.300	5.824	0.100
672.400	8.942	0.100
672.500	8.273	0.100
672.600	4.380	0.100
672.700	15.696	0.100
672.800	9.604	0.100
672.900	4.572	0.100
673.000	21.349	0.100
673.100	7.207	0.100
673.200	13.895	0.100
673.300	4.224	0.100
673.400	-2.654	0.100
673.500	-2.211	0.100
673.600	-12.459	0.100
673.700	21.644	0.100
673.800	9.295	0.100
673.900	-0.126	0.100
674.000	4.752	0.100
674.100	8.745	0.100
674.200	18.717	0.100
674.300	3.276	0.100
674.400	12.275	0.100
674.500	18.531	0.100
674.600	-1.667	0.100
674.700	-7.780	0.100
674.800	24.371	0.100
674.900	13.933	0.100
675.000	8.964	0.100
675.100	17.581	0.100
675.200	5.782	0.100
675.300	-7.152	0.100
675.400	0.319	0.100
675.500	29.125	0.100
675.600	-1.333	0.100
675.700	11.363	0.100
675.800	-13.508	0.100
675.900	7.686	0.100
676.000	24.044	0.100
676.100	8.515	0.100
676.200	5.834	0.100
676.300	2.078	0.100
676.400	-2.973	0.100
676.500	11.821	0.100
676.600	-3.578	0.100
676.700	8.956	0.100
676.800	11.687	0.100
676.900	18.991	0.100
677.000	-4.682	0.100
677.100	6.156	0.100
677.200	21.881	0.100
677.300	-8.455	0.100
677.400	-0.557	0.100
677.500	5.723	0.100
677.600	20.573	0.100
677.700	-1.218	0.100
677.800	0.069	0.100
677.900	15.431	0.100
678.000	-5.891	0.100
678.100	21.130	0.100
678.200	7.938	0.100
678.300	26.377	0.100
678.400	3.637	0.100
678.500	11.101	0.100
678.600	-0.255	0.100
678.700	13.022	0.100
678.800	1.922	0.100
678.900	15.380	0.100
679.000	8.320	0.100
679.100	7.826	0.100
679.200	0.215	0.100
679.300	11.523	0.100
679.400	26.844	0.100
679.500	14.135	0.100
679.600	-8.384	0.100
679.700	8.713	0.100
679.800	-5.037	0.100
679.900	30.274	0.100
680.000	-1.289	0.100
680.100	9.940	0.100
680.200	14.181	0.100
680.300	6.980	0.100
680.400	7.372	0.100
680.500	9.128	0.100
680.600	11.330	0.100
680.700	-9.096	0.100
680.800	13.871	0.100
680.900	16.890	0.100
681.000	7.005	0.100
681.100	4.185	0.100
681.200	-12.692	0.100
681.300	-10.849	0.100
681.400	9.033	0.100
681.500	2.792	0.100
681.600	8.790	0.100
681.700	1.389	0.100
681.800	11.651	0.100
681.900	7.183	0.100
682.000	13.867	0.100
682.100	3.962	0.100
682.200	14.407	0.100
682.300	1.428	0.100
682.400	3.531	0.100
682.500	20.930	0.100
682.600	-6.227	0.100
682.700	5.470	0.100
682.800	6.916	0.100
682.900	1.325	0.100
683.000	7.915	0.100
683.100	27.249	0.100
683.200	6.828	0.100
683.300	-7.358	0.100
683.400	-0.400	0.100
683.500	9.362	0.100
683.600	-0.269	0.100
683.700	26.601	0.100
683.800	11.996	0.100
683.900	5.004	0.100
684.000	-1.717	0.100
684.100	7.372	0.100
684.200	17.402	0.100
684.300	1.337	0.100
684.400	2.075	0.100
684.500	-15.154	0.100
684.600	-2.832	0.100
684.700	25.787	0.100
684.800	1.881	0.100
684.900	8.319	0.100
685.000	7.959	0.100
685.100	0.901	0.100
685.200	8.101	0.100
685.300	11.622	0.100
685.400	8.670	0.100
685.500	-5.025	0.100
685.600	10.200	0.100
685.700	20.487	0.100
685.800	-1.795	0.100
685.900	7.157	0.100
686.000	8.264	0.100
686.100	-1.431	0.100
686.200	1.356	0.100
686.300	6.498	0.100
686.400	5.202	0.100
686.500	4.631	0.100
686.600	-1.521	0.100
686.700	11.755	0.100
686.800	11.164	0.100
686.900	2.016	0.100
687.000	10.816	0.100
687.100	-2.167	0.100
687.200	18.879	0.100
687.300	2.115	0.100
687.400	14.225	0.100
687.500	18.087	0.100
687.600	3.231	0.100
687.700	5.643	0.100
687.800	2.238	0.100
687.900	3.372	0.100
688.000	17.837	0.100
688.100	-5.430	0.100
688.200	4.411	0.100
688.300	14.232	0.100
688.400	4.976	0.100
688.500	16.288	0.100
688.600	6.086	0.100
688.700	1.853	0.100
688.800	11.293	0.100
688.900	7.955	0.100
689.000	8.279	0.100
689.100	19.251	0.100
689.200	11.046	0.100
689.300	-5.337	0.100
689.400	-1.245	0.100
689.500	2.648	0.100
689.600	5.451	0.100
689.700	22.899	0.100
689.800	7.509	0.100
689.900	-10.810	0.100
690.000	18.322	0.100
690.100	7.713	0.100
690.200	14.156	0.100
690.300	14.036	0.100
690.400	9.594	0.100
690.500	-0.180	0.100
690.600	18.580	0.100
690.700	-0.990	0.100
690.800	10.349	0.100
690.900	3.927	0.100
691.000	-3.217	0.100
691.100	-2.148	0.100
691.200	16.250	0.100
691.300	11.136	0.100
691.400	4.832	0.100
691.500	8.646	0.100
691.600	12.621	0.100
691.700	4.099	0.100
691.800	0.295	0.100
691.900	5.695	0.100
692.000	11.686	0.100
692.100	-9.486	0.100
692.200	24.219	0.100
692.300	7.687	0.100
692.400	0.623	0.100
692.500	6.323	0.100
692.600	6.283	0.100
692.700	-1.127	0.100
692.800	17.505	0.100
692.900	-8.051	0.100
693.000	-3.024	0.100
693.100	2.518	0.100
693.200	0.989	0.100
693.300	4.180	0.100
693.400	3.425	0.100
693.500	13.455	0.100
693.600	5.142	0.100
693.700	-1.894	0.100
693.800	-2.721	0.100
693.900	0.454	0.100
694.000	7.939	0.100
694.100	1.498	0.100
694.200	-1.730	0.100
694.300	13.417	0.100
694.400	6.853	0.100
694.500	-0.497	0.100
694.600	-6.050	0.100
694.700	0.347	0.100
694.800	5.341	0.100
694.900	12.855	0.100
695.000	-3.648	0.100
695.100	11.283	0.100
695.200	-7.689	0.100
695.300	-5.233	0.100
695.400	21.263	0.100
695.500	-6.258	0.100
695.600	5.923	0.100
695.700	-17.623	0.100
695.800	17.172	0.100
695.900	2.428	0.100
696.000	20.836	0.100
696.100	5.599	0.100
696.200	0.305	0.100
696.300	-11.446	0.100
696.400	-5.072	0.100
696.500	4.522	0.100
696.600	15.613	0.100
696.700	3.221	0.100
696.800	7.489	0.100
696.900	8.166	0.100
697.000	-3.292	0.100
697.100	14.727	0.100
697.200	4.161	0.100
697.300	0.449	0.100
697.400	4.025	0.100
697.500	5.792	0.100
697.600	10.189	0.100
697.700	6.139	0.100
697.800	1.413	0.100
697.900	3.847	0.100
698.000	-0.825	0.100
698.100	3.973	0.100
698.200	15.419	0.100
698.300	-2.715	0.100
698.400	14.734	0.100
698.500	-8.961	0.100
698.600	-0.293	0.100
698.700	6.976	0.100
698.800	4.580	0.100
698.900	10.194	0.100
699.000	-6.423	0.100
699.100	15.005	0.100
699.200	-5.465	0.100
699.300	7.332	0.100
699.400	-4.594	0.100
699.500	6.024	0.100
699.600	15.935	0.100
699.700	2.493	0.100
699.800	7.689	0.100
699.900	0.042	0.100
700.000	-1.791	0.100
700.100	11.805	0.100
700.200	-4.040	0.100
700.300	11.558	0.100
700.400	6.105	0.100
700.500	0.858	0.100
700.600	8.347	0.100
700.700	11.964	0.100
700.800	6.270	0.100
700.900	7.043	0.100
701.000	-5.847	0.100
701.100	9.149	0.100
701.200	-17.547	0.100
701.300	20.628	0.100
701.400	-0.754	0.100
701.500	12.849	0.100
701.600	-3.539	0.100
701.700	2.777	0.100
701.800	-1.528	0.100
701.900	-1.586	0.100
702.000	-2.877	0.100
702.100	-12.380	0.100
702.200	13.337	0.100
702.300	1.762	0.100
702.400	12.129	0.100
702.500	9.865	0.100
702.600	-10.644	0.100
702.700	1.670	0.100
702.800	-5.018	0.100
702.900	5.317	0.100
703.000	16.625	0.100
703.100	4.662	0.100
703.200	-3.711	0.100
703.300	9.898	0.100
703.400	-4.510	0.100
703.500	-0.151	0.100
703.600	-7.238	0.100
703.700	3.687	0.100
703.800	14.105	0.100
703.900	8.232	0.100
704.000	0.664	0.100
704.100	3.444	0.100
704.200	2.447	0.100
704.300	-4.817	0.100
704.400	1.299	0.100
704.500	15.917	0.100
704.600	0.278	0.100
704.700	-5.068	0.100
704.800	8.813	0.100
704.900	4.498	0.100
705.000	-10.660	0.100
705.100	7.993	0.100
705.200	1.607	0.100
705.300	-5.890	0.100
705.400	14.139	0.100
705.500	15.547	0.100
705.600	9.803	0.100
705.700	-0.034	0.100
705.800	10.241	0.100
705.900	-12.844	0.100
706.000	1.018	0.100
706.100	11.254	0.100
706.200	-18.230	0.100
706.300	5.413	0.100
706.400	1.331	0.100
706.500	-8.819	0.100
706.600	1.050	0.100
706.700	7.122	0.100
706.800	10.993	0.100
706.900	28.572	0.100
707.000	17.441	0.100
707.100	9.094	0.100
707.200	7.955	0.100
707.300	-5.495	0.100
707.400	3.893	0.100
707.500	14.758	0.100
707.600	7.631	0.100
707.700	-6.160	0.100
707.800	5.381	0.100
707.900	-7.459	0.100
708.000	-3.653	0.100
708.100	9.222	0.100
708.200	7.026	0.100
708.300	9.332	0.100
708.400	14.038	0.100
708.500	-3.428	0.100
708.600	2.413	0.100
708.700	-0.024	0.100
708.800	0.092	0.100
708.900	8.584	0.100
709.000	14.294	0.100
709.100	4.467	0.100
709.200	7.081	0.100
709.300	4.135	0.100
709.400	2.623	0.100
709.500	2.910	0.100
709.600	5.461	0.100
709.700	2.305	0.100
709.800	13.961	0.100
709.900	15.378	0.100
710.000	-11.868	0.100
710.100	7.577	0.100
710.200	-7.846	0.100
710.300	17.691	0.100
710.400	3.248	0.100
710.500	-11.165	0.100
710.600	2.526	0.100
710.700	18.770	0.100
710.800	8.608	0.100
710.900	4.945	0.100
711.000	-3.303	0.100
711.100	-1.641	0.100
711.200	2.838	0.100
711.300	5.284	0.100
711.400	2.993	0.100
711.500	11.998	0.100
711.600	7.939	0.100
711.700	7.369	0.100
711.800	14.039	0.100
711.900	5.018	0.100
712.000	4.651	0.100
712.100	3.438	0.100
712.200	-7.536	0.100
712.300	6.071	0.100
712.400	5.080	0.100
712.500	-1.837	0.100
712.600	-3.053	0.100
712.700	2.626	0.100
712.800	11.070	0.100
712.900	1.673	0.100
713.000	5.371	0.100
713.100	1.901	0.100
713.200	0.347	0.100
713.300	-1.811	0.100
713.400	-8.110	0.100
713.500	19.175	0.100
713.600	2.208	0.100
713.700	7.977	0.100
713.800	-5.127	0.100
713.900	-2.969	0.100
714.000	16.023	0.100
714.100	5.175	0.100
714.200	-0.063	0.100
714.300	-0.300	0.100
714.400	2.583	0.100
714.500	12.673	0.100
714.600	1.448	0.100
714.700	-1.351	0.100
714.800	9.940	0.100
714.900	1.704	0.100
715.000	5.724	0.100
715.100	-4.283	0.100
715.200	21.246	0.100
715.300	-15.834	0.100
715.400	14.182	0.100
715.500	0.908	0.100
715.600	-15.950	0.100
715.700	4.898	0.100
715.800	12.164	0.100
715.900	0.983	0.100
716.000	-0.062	0.100
716.100	7.421	0.100
716.200	1.580	0.100
716.300	-5.964	0.100
716.400	3.613	0.100
716.500	10.473	0.100
716.600	3.574	0.100
716.700	2.687	0.100
716.800	0.267	0.100
716.900	-3.178	0.100
717.000	-7.997	0.100
717.100	1.013	0.100
717.200	18.886	0.100
717.300	11.312	0.100
717.400	6.015	0.100
717.500	-6.812	0.100
717.600	5.823	0.100
717.700	5.313	0.100
717.800	9.211	0.100
717.900	6.043	0.100
718.000	0.549	0.100
718.100	16.682	0.100
718.200	8.403	0.100
718.300	-1.956	0.100
718.400	10.793	0.100
718.500	15.166	0.100
718.600	-4.765	0.100
718.700	-9.211	0.100
718.800	-6.426	0.100
718.900	2.834	0.100
719.000	4.645	0.100
719.100	3.134	0.100
719.200	-4.858	0.100
719.300	5.428	0.100
719.400	-6.028	0.100
719.500	9.053	0.100
719.600	9.355	0.100
719.700	-9.917	0.100
719.800	1.198	0.100
719.900	9.710	0.100
720.000	4.640	0.100
720.100	3.998	0.100
720.200	-2.703	0.100
720.300	8.347	0.100
720.400	3.828	0.100
720.500	19.807	0.100
720.600	2.839	0.100
720.700	0.610	0.100
720.800	5.109	0.100
720.900	11.407	0.100
721.000	5.037	0.100
721.100	1.108	0.100
721.200	9.275	0.100
721.300	6.577	0.100
721.400	1.170	0.100
721.500	7.546	0.100
721.600	16.752	0.100
721.700	-3.157	0.100
721.800	6.593	0.100
721.900	16.301	0.100
722.000	2.708	0.100
722.100	9.718	0.100
722.200	-1.139	0.100
722.300	-0.819	0.100
722.400	8.033	0.100
722.500	-2.576	0.100
722.600	15.158	0.100
722.700	12.393	0.100
722.800	5.989	0.100
722.900	-1.089	0.100
723.000	20.870	0.100
723.100	1.086	0.100
723.200	-8.018	0.100
723.300	7.581	0.100
723.400	-6.536	0.100
723.500	6.233	0.100
723.600	7.825	0.100
723.700	10.394	0.100
723.800	7.261	0.100
723.900	-6.308	0.100
724.000	-1.621	0.100
724.100	-2.670	0.100
724.200	-5.358	0.100
724.300	-0.788	0.100
724.400	-3.534	0.100
724.500	10.748	0.100
724.600	10.193	0.100
724.700	0.116	0.100
724.800	3.379	0.100
724.900	-2.506	0.100
725.000	16.177	0.100
725.100	-1.324	0.100
725.200	-5.251	0.100
725.300	11.305	0.100
725.400	-3.710	0.100
725.500	6.513	0.100
725.600	9.035	0.100
725.700	12.361	0.100
725.800	11.375	0.100
725.900	-1.907	0.100
726.000	-8.489	0.100
726.100	8.836	0.100
726.200	-1.963	0.100
726.300	-6.571	0.100
726.400	20.336	0.100
726.500	-1.189	0.100
726.600	-2.809	0.100
726.700	3.939	0.100
726.800	1.195	0.100
726.900	5.707	0.100
727.000	-1.330	0.100
727.100	10.957	0.100
727.200	11.687	0.100
727.300	-15.998	0.100
727.400	14.692	0.100
727.500	7.357	0.100
727.600	-8.208	0.100
727.700	1.979	0.100
727.800	7.439	0.100
727.900	7.683	0.100
728.000	5.018	0.100
728.100	-2.306	0.100
728.200	11.597	0.100
728.300	6.263	0.100
728.400	17.256	0.100
728.500	-5.596	0.100
728.600	13.617	0.100
728.700	4.442	0.100
728.800	-4.163	0.100
728.900	1.118	0.100
729.000	7.719	0.100
729.100	-6.388	0.100
729.200	8.420	0.100
729.300	18.492	0.100
729.400	-6.061	0.100
729.500	-4.478	0.100
729.600	2.523	0.100
729.700	13.931	0.100
729.800	5.554	0.100
729.900	5.989	0.100
730.000	-7.868	0.100
730.100	-0.732	0.100
730.200	6.413	0.100
730.300	5.654	0.100
730.400	13.804	0.100
730.500	12.895	0.100
730.600	-0.981	0.100
730.700	5.790	0.100
730.800	4.861	0.100
730.900	8.888	0.100
731.000	7.587	0.100
731.100	12.316	0.100
731.200	3.514	0.100
731.300	11.652	0.100
731.400	12.581	0.100
731.500	12.966	0.100
731.600	-0.928	0.100
731.700	-6.408	0.100
731.800	0.581	0.100
731.900	15.081	0.100
732.000	21.840	0.100
732.100	-0.717	0.100
732.200	-6.333	0.100
732.300	11.315	0.100
732.400	-0.819	0.100
732.500	2.622	0.100
732.600	4.891	0.100
732.700	7.976	0.100
732.800	10.510	0.100
732.900	23.987	0.100
733.000	-4.343	0.100
733.100	9.988	0.100
733.200	11.570	0.100
733.300	16.715	0.100
733.400	3.444	0.100
733.500	9.278	0.100
733.600	-1.178	0.100
733.700	-13.124	0.100
733.800	1.829	0.100
733.900	-4.717	0.100
734.000	8.404	0.100
734.100	6.395	0.100
734.200	14.217	0.100
734.300	7.603	0.100
734.400	14.477	0.100
734.500	-12.258	0.100
734.600	-1.785	0.100
734.700	9.551	0.100
734.800	7.680	0.100
734.900	12.627	0.100
735.000	0.753	0.100
735.100	-0.958	0.100
735.200	7.160	0.100
735.300	-6.573	0.100
735.400	19.512	0.100
735.500	11.485	0.100
735.600	-3.644	0.100
735.700	-1.943	0.100
735.800	-12.002	0.100
735.900	6.107	0.100
736.000	5.992	0.100
736.100	11.255	0.100
736.200	16.573	0.100
736.300	5.902	0.100
736.400	5.424	0.100
736.500	3.474	0.100
736.600	-10.673	0.100
736.700	3.237	0.100
736.800	12.276	0.100
736.900	19.370	0.100
737.000	5.281	0.100
737.100	-7.922	0.100
737.200	2.374	0.100
737.300	8.634	0.100
737.400	7.605	0.100
737.500	12.750	0.100
737.600	2.570	0.100
737.700	-0.420	0.100
737.800	4.975	0.100
737.900	4.567	0.100
738.000	8.439	0.100
738.100	7.373	0.100
738.200	-5.421	0.100
738.300	9.280	0.100
738.400	8.614	0.100
738.500	-0.139	0.100
738.600	-0.643	0.100
738.700	0.235	0.100
738.800	5.641	0.100
738.900	13.106	0.100
739.000	0.408	0.100
739.100	-8.164	0.100
739.200	11.595	0.100
739.300	16.163	0.100
739.400	4.870	0.100
739.500	5.770	0.100
739.600	0.640	0.100
739.700	1.903	0.100
739.800	3.519	0.100
739.900	-1.857	0.100
740.000	8.106	0.100
740.100	1.337	0.100
740.200	10.737	0.100
740.300	12.547	0.100
740.400	9.241	0.100
740.500	-1.908	0.100
740.600	5.670	0.100
740.700	9.159	0.100
740.800	-10.761	0.100
740.900	8.912	0.100
741.000	-5.010	0.100
741.100	13.630	0.100
741.200	-1.554	0.100
741.300	4.234	0.100
741.400	7.709	0.100
741.500	10.498	0.100
741.600	-3.446	0.100
741.700	12.380	0.100
741.800	16.129	0.100
741.900	-4.054	0.100
742.000	-0.788	0.100
742.100	3.316	0.100
742.200	15.716	0.100
742.300	0.349	0.100
742.400	5.021	0.100
742.500	-12.245	0.100
742.600	-1.998	0.100
742.700	-1.650	0.100
742.800	8.837	0.100
742.900	21.033	0.100
743.000	2.007	0.100
743.100	3.059	0.100
743.200	5.785	0.100
743.300	9.990	0.100
743.400	5.910	0.100
743.500	5.523	0.100
743.600	1.405	0.100
743.700	3.834	0.100
743.800	6.169	0.100
743.900	10.009	0.100
744.000	2.183	0.100
744.100	5.032	0.100
744.200	-6.523	0.100
744.300	16.238	0.100
744.400	9.410	0.100
744.500	18.250	0.100
744.600	-19.427	0.100
744.700	15.568	0.100
744.800	7.073	0.100
744.900	12.950	0.100
745.000	-2.639	0.100
745.100	4.570	0.100
745.200	6.199	0.100
745.300	2.524	0.100
745.400	7.058	0.100
745.500	10.083	0.100
745.600	8.380	0.100
745.700	-11.784	0.100
745.800	0.874	0.100
745.900	4.992	0.100
746.000	3.202	0.100
746.100	8.004	0.100
746.200	11.554	0.100
746.300	-4.192	0.100
746.400	4.802	0.100
746.500	0.371	0.100
746.600	11.489	0.100
746.700	5.347	0.100
746.800	12.878	0.100
746.900	6.087	0.100
747.000	-2.686	0.100
747.100	-1.714	0.100
747.200	-17.350	0.100
747.300	6.442	0.100
747.400	9.435	0.100
747.500	11.581	0.100
747.600	6.001	0.100
747.700	-0.209	0.100
747.800	-2.965	0.100
747.900	-6.649	0.100
748.000	11.964	0.100
748.100	5.352	0.100
748.200	8.360	0.100
748.300	-4.315	0.100
748.400	9.573	0.100
748.500	-1.892	0.100
748.600	-16.824	0.100
748.700	1.397	0.100
748.800	21.615	0.100
748.900	7.616	0.100
749.000	7.517	0.100
749.100	1.633	0.100
749.200	-1.433	0.100
749.300	-9.992	0.100
749.400	15.295	0.100
749.500	10.974	0.100
749.600	1.462	0.100
749.700	0.894	0.100
749.800	9.961	0.100
749.900	-4.971	0.100
750.000	2.771	0.100
750.100	16.135	0.100
750.200	-1.960	0.100
750.300	17.623	0.100
750.400	4.459	0.100
750.500	-2.959	0.100
750.600	-6.675	0.100
750.700	-7.830	0.100
750.800	20.706	0.100
750.900	-11.223	0.100
751.000	13.253	0.100
751.100	12.095	0.100
751.200	5.767	0.100
751.300	9.728	0.100
751.400	16.729	0.100
751.500	12.208	0.100
751.600	10.134	0.100
751.700	11.733	0.100
751.800	1.018	0.100
751.900	6.134	0.100
752.000	6.547	0.100
752.100	3.874	0.100
752.200	-2.963	0.100
752.300	11.923	0.100
752.400	4.335	0.100
752.500	-1.360	0.100
752.600	4.714	0.100
752.700	14.743	0.100
752.800	0.834	0.100
752.900	-5.576	0.100
753.000	10.814	0.100
753.100	5.620	0.100
753.200	9.181	0.100
753.300	1.989	0.100
753.400	1.514	0.100
753.500	2.906	0.100
753.600	1.000	0.100
753.700	9.288	0.100
753.800	2.081	0.100
753.900	-3.163	0.100
754.000	12.729	0.100
754.100	8.032	0.100
754.200	3.622	0.100
754.300	8.580	0.100
754.400	-2.446	0.100
754.500	18.085	0.100
754.600	-5.433	0.100
754.700	19.003	0.100
754.800	1.178	0.100
754.900	-6.588	0.100
755.000	3.508	0.100
755.100	20.823	0.100
755.200	11.840	0.100
755.300	1.838	0.100
755.400	17.932	0.100
755.500	-0.410	0.100
755.600	6.632	0.100
755.700	1.464	0.100
755.800	1.186	0.100
755.900	5.355	0.100
756.000	15.690	0.100
756.100	0.888	0.100
756.200	1.236	0.100
756.300	-9.391	0.100
756.400	11.867	0.100
756.500	7.725	0.100
756.600	11.529	0.100
756.700	-5.885	0.100
756.800	19.566	0.100
756.900	10.906	0.100
757.000	-3.048	0.100
757.100	10.991	0.100
757.200	1.714	0.100
757.300	7.097	0.100
757.400	-5.371	0.100
757.500	-6.650	0.100
757.600	7.695	0.100
757.700	-2.204	0.100
757.800	16.927	0.100
757.900	10.348	0.100
758.000	11.171	0.100
758.100	-6.172	0.100
758.200	28.628	0.100
758.300	17.197	0.100
758.400	8.039	0.100
758.500	4.114	0.100
758.600	17.011	0.100
758.700	-1.016	0.100
758.800	1.238	0.100
758.900	-7.987	0.100
759.000	12.006	0.100
759.100	5.734	0.100
759.200	13.624	0.100
759.300	-8.774	0.100
759.400	2.690	0.100
759.500	3.056	0.100
759.600	3.144	0.100
759.700	5.818	0.100
759.800	16.151	0.100
759.900	14.250	0.100
760.000	-21.643	0.100
760.100	13.999	0.100
760.200	-0.489	0.100
760.300	-7.766	0.100
760.400	5.660	0.100
760.500	9.037	0.100
760.600	-4.797	0.100
760.700	-7.497	0.100
760.800	0.009	0.100
760.900	1.194	0.100
761.000	10.613	0.100
761.100	24.178	0.100
761.200	10.730	0.100
761.300	-1.793	0.100
761.400	1.037	0.100
761.500	6.500	0.100
761.600	8.995	0.100
761.700	9.431	0.100
761.800	-6.765	0.100
761.900	13.621	0.100
762.000	-1.130	0.100
762.100	15.750	0.100
762.200	10.408	0.100
762.300	13.934	0.100
762.400	13.177	0.100
762.500	0.260	0.100
762.600	11.455	0.100
762.700	4.338	0.100
762.800	2.376	0.100
762.900	-7.193	0.100
763.000	1.416	0.100
763.100	-3.804	0.100
763.200	15.642	0.100
763.300	-4.386	0.100
763.400	14.875	0.100
763.500	6.247	0.100
763.600	10.693	0.100
763.700	2.268	0.100
763.800	-1.173	0.100
763.900	1.015	0.100
764.000	11.832	0.100
764.100	10.821	0.100
764.200	16.351	0.100
764.300	3.355	0.100
764.400	-11.718	0.100
764.500	1.905	0.100
764.600	4.051	0.100
764.700	-1.339	0.100
764.800	8.207	0.100
764.900	17.281	0.100
765.000	2.928	0.100
765.100	8.908	0.100
765.200	-4.855	0.100
765.300	3.852	0.100
765.400	22.897	0.100
765.500	11.741	0.100
765.600	7.570	0.100
765.700	-9.089	0.100
765.800	10.428	0.100
765.900	8.900	0.100
766.000	3.474	0.100
766.100	8.663	0.100
766.200	17.719	0.100
766.300	-12.907	0.100
766.400	12.002	0.100
766.500	11.891	0.100
766.600	6.457	0.100
766.700	20.451	0.100
766.800	-2.294	0.100
766.900	6.288	0.100
767.000	8.373	0.100
767.100	1.476	0.100
767.200	-4.651	0.100
767.300	20.382	0.100
767.400	2.828	0.100
767.500	-3.282	0.100
767.600	3.418	0.100
767.700	15.579	0.100
767.800	20.395	0.100
767.900	6.678	0.100
768.000	22.293	0.100
768.100	10.193	0.100
768.200	14.492	0.100
768.300	8.718	0.100
768.400	5.299	0.100
768.500	8.311	0.100
768.600	12.698	0.100
768.700	-7.581	0.100
768.800	10.382	0.100
768.900	12.647	0.100
769.000	21.350	0.100
769.100	9.779	0.100
769.200	8.098	0.100
769.300	1.170	0.100
769.400	-0.980	0.100
769.500	3.126	0.100
769.600	1.839	0.100
769.700	-11.534	0.100
769.800	15.220	0.100
769.900	14.934	0.100
770.000	12.063	0.100
770.100	14.663	0.100
770.200	15.142	0.100
770.300	5.623	0.100
770.400	10.784	0.100
770.500	2.920	0.100
770.600	-3.931	0.100
770.700	4.364	0.100
770.800	8.786	0.100
770.900	8.650	0.100
771.000	20.984	0.100
771.100	1.817	0.100
771.200	5.088	0.100
771.300	4.520	0.100
771.400	-6.797	0.100
771.500	-1.483	0.100
771.600	7.982	0.100
771.700	-1.763	0.100
771.800	3.914	0.100
771.900	-11.569	0.100
772.000	9.875	0.100
772.100	11.458	0.100
772.200	5.941	0.100
772.300	10.936	0.100
772.400	0.007	0.100
772.500	19.267	0.100
772.600	20.186	0.100
772.700	3.349	0.100
772.800	2.383	0.100
772.900	16.811	0.100
773.000	-4.265	0.100
773.100	7.639	0.100
773.200	1.290	0.100
773.300	-11.061	0.100
773.400	22.424	0.100
773.500	-2.263	0.100
773.600	16.831	0.100
773.700	2.828	0.100
773.800	9.591	0.100
773.900	1.915	0.100
774.000	15.903	0.100
774.100	-0.657	0.100
774.200	-13.789	0.100
774.300	4.163	0.100
774.400	-6.287	0.100
774.500	24.875	0.100
774.600	9.527	0.100
774.700	14.881	0.100
774.800	12.083	0.100
774.900	5.178	0.100
775.000	-0.221	0.100
775.100	-3.771	0.100
775.200	14.508	0.100
775.300	10.696	0.100
775.400	2.156	0.100
775.500	21.085	0.100
775.600	1.010	0.100
775.700	18.606	0.100
775.800	3.823	0.100
775.900	3.487	0.100
776.000	9.791	0.100
776.100	6.853	0.100
776.200	24.719	0.100
776.300	-1.777	0.100
776.400	23.523	0.100
776.500	-4.275	0.100
776.600	11.627	0.100
776.700	-0.994	0.100
776.800	10.136	0.100
776.900	9.793	0.100
777.000	11.646	0.100
777.100	13.421	0.100
777.200	6.481	0.100
777.300	-0.380	0.100
777.400	1.878	0.100
777.500	7.138	0.100
777.600	-2.619	0.100
777.700	13.134	0.100
777.800	-4.830	0.100
777.900	18.105	0.100
778.000	9.752	0.100
778.100	1.930	0.100
778.200	6.928	0.100
778.300	12.179	0.100
778.400	15.313	0.100
778.500	11.096	0.100
778.600	2.753	0.100
778.700	4.226	0.100
778.800	16.284	0.100
778.900	12.605	0.100
779.000	-2.977	0.100
779.100	6.442	0.100
779.200	1.747	0.100
779.300	20.202	0.100
779.400	2.580	0.100
779.500	10.909	0.100
779.600	7.700	0.100
779.700	4.731	0.100
779.800	9.784	0.100
779.900	16.248	0.100
780.000	10.971	0.100
780.100	-4.343	0.100
780.200	-0.755	0.100
780.300	5.415	0.100
780.400	20.809	0.100
780.500	3.564	0.100
780.600	5.361	0.100
780.700	21.211	0.100
780.800	-7.150	0.100
780.900	16.045	0.100
781.000	0.373	0.100
781.100	6.915	0.100
781.200	15.729	0.100
781.300	1.371	0.100
781.400	-0.030	0.100
781.500	-2.377	0.100
781.600	15.419	0.100
781.700	16.941	0.100
781.800	0.324	0.100
781.900	2.035	0.100
782.000	1.633	0.100
782.100	5.713	0.100
782.200	7.740	0.100
782.300	26.379	0.100
782.400	0.506	0.100
782.500	7.754	0.100
782.600	12.459	0.100
782.700	-3.779	0.100
782.800	-1.476	0.100
782.900	32.473	0.100
783.000	24.282	0.100
783.100	4.489	0.100
783.200	-4.393	0.100
783.300	5.498	0.100
783.400	12.589	0.100
783.500	10.521	0.100
783.600	-0.576	0.100
783.700	-4.409	0.100
783.800	2.205	0.100
783.900	13.085	0.100
784.000	15.867	0.100
784.100	10.253	0.100
784.200	15.978	0.100
784.300	4.389	0.100
784.400	6.240	0.100
784.500	10.940	0.100
784.600	14.733	0.100
784.700	9.269	0.100
784.800	9.781	0.100
784.900	4.886	0.100
785.000	4.046	0.100
785.100	9.160	0.100
785.200	8.019	0.100
785.300	19.753	0.100
785.400	22.875	0.100
785.500	22.226	0.100
785.600	10.860	0.100
785.700	1.123	0.100
785.800	-1.463	0.100
785.900	0.494	0.100
786.000	9.776	0.100
786.100	13.387	0.100
786.200	10.611	0.100
786.300	7.543	0.100
786.400	2.010	0.100
786.500	26.861	0.100
786.600	22.696	0.100
786.700	7.403	0.100
786.800	15.189	0.100
786.900	8.097	0.100
787.000	-2.398	0.100
787.100	0.160	0.100
787.200	10.146	0.100
787.300	14.940	0.100
787.400	-0.950	0.100
787.500	2.808	0.100
787.600	-3.222	0.100
787.700	21.974	0.100
787.800	6.144	0.100
787.900	11.495	0.100
788.000	8.306	0.100
788.100	8.104	0.100
788.200	11.992	0.100
788.300	6.674	0.100
788.400	8.569	0.100
788.500	12.514	0.100
788.600	3.396	0.100
788.700	-3.397	0.100
788.800	13.236	0.100
788.900	8.020	0.100
789.000	13.219	0.100
789.100	5.342	0.100
789.200	9.365	0.100
789.300	9.765	0.100
789.400	14.638	0.100
789.500	10.626	0.100
789.600	24.740	0.100
789.700	0.296	0.100
789.800	7.554	0.100
789.900	19.620	0.100
790.000	11.990	0.100
790.100	1.654	0.100
790.200	-3.089	0.100
790.300	11.459	0.100
790.400	13.498	0.100
790.500	7.972	0.100
790.600	0.294	0.100
790.700	20.768	0.100
790.800	2.176	0.100
790.900	12.140	0.100
791.000	24.333	0.100
791.100	-4.462	0.100
791.200	15.131	0.100
791.300	12.212	0.100
791.400	-2.469	0.100
791.500	-1.462	0.100
791.600	16.129	0.100
791.700	-6.687	0.100
791.800	15.685	0.100
791.900	12.007	0.100
792.000	22.347	0.100
792.100	-11.659	0.100
792.200	6.373	0.100
792.300	2.034	0.100
792.400	21.279	0.100
792.500	19.068	0.100
792.600	3.844	0.100
792.700	16.205	0.100
792.800	9.022	0.100
792.900	11.718	0.100
793.000	7.201	0.100
793.100	11.719	0.100
793.200	-5.289	0.100
793.300	12.316	0.100
793.400	4.394	0.100
793.500	2.402	0.100
793.600	12.486	0.100
793.700	14.451	0.100
793.800	1.751	0.100
793.900	5.537	0.100
794.000	3.232	0.100
794.100	11.947	0.100
794.200	4.285	0.100
794.300	9.699	0.100
794.400	16.398	0.100
794.500	18.747	0.100
794.600	-10.956	0.100
794.700	14.954	0.100
794.800	13.934	0.100
794.900	7.940	0.100
795.000	-0.680	0.100
795.100	0.534	0.100
795.200	-0.984	0.100
795.300	13.064	0.100
795.400	29.451	0.100
795.500	12.729	0.100
795.600	1.032	0.100
795.700	5.358	0.100
795.800	9.839	0.100
795.900	14.741	0.100
796.000	5.230	0.100
796.100	24.639	0.100
796.200	9.408	0.100
796.300	6.092	0.100
796.400	10.420	0.100
796.500	24.839	0.100
796.600	1.934	0.100
796.700	-1.499	0.100
796.800	35.513	0.100
796.900	9.323	0.100
797.000	18.491	0.100
797.100	6.842	0.100
797.200	4.052	0.100
797.300	-5.720	0.100
797.400	9.777	0.100
797.500	11.273	0.100
797.600	3.310	0.100
797.700	7.475	0.100
797.800	15.471	0.100
797.900	7.376	0.100
798.000	7.058	0.100
798.100	7.391	0.100
798.200	6.286	0.100
798.300	1.157	0.100
798.400	7.946	0.100
798.500	-0.247	0.100
798.600	2.414	0.100
798.700	-6.725	0.100
798.800	-3.273	0.100
798.900	10.539	0.100
799.000	11.089	0.100
799.100	19.756	0.100
799.200	-4.841	0.100
799.300	13.741	0.100
799.400	0.432	0.100
799.500	12.892	0.100
799.600	5.673	0.100
799.700	16.011	0.100
799.800	7.151	0.100
799.900	5.535	0.100
800.000	0.646	0.100
