time /s	I /nA	E /V
0.100	-9.410	0.100
0.200	-8.378	0.100
0.300	-4.298	0.100
0.400	-6.423	0.100
0.500	-8.701	0.100
0.600	-10.076	0.100
0.700	-3.371	0.100
0.800	-3.060	0.100
0.900	-7.793	0.100
1.000	0.632	0.100
1.100	-4.591	0.100
1.200	-11.193	0.100
1.300	-10.146	0.100
1.400	0.395	0.100
1.500	-1.250	0.100
1.600	-5.532	0.100
1.700	-3.796	0.100
1.800	-11.344	0.100
1.900	-12.352	0.100
2.000	-22.155	0.100
2.100	2.041	0.100
2.200	-3.261	0.100
2.300	-9.277	0.100
2.400	-2.876	0.100
2.500	-9.725	0.100
2.600	-12.345	0.100
2.700	2.646	0.100
2.800	-6.157	0.100
2.900	-10.940	0.100
3.000	-10.337	0.100
3.100	-6.616	0.100
3.200	-13.422	0.100
3.300	-2.345	0.100
3.400	-4.720	0.100
3.500	-8.955	0.100
3.600	-8.468	0.100
3.700	-9.216	0.100
3.800	-5.625	0.100
3.900	-5.928	0.100
4.000	-6.720	0.100
4.100	-4.747	0.100
4.200	-8.230	0.100
4.300	-2.762	0.100
4.400	-8.436	0.100
4.500	-4.559	0.100
4.600	7.713	0.100
4.700	-5.115	0.100
4.800	-4.827	0.100
4.900	-1.146	0.100
5.000	-10.877	0.100
5.100	-9.838	0.100
5.200	-8.531	0.100
5.300	-15.332	0.100
5.400	-15.140	0.100
5.500	-13.499	0.100
5.600	0.809	0.100
5.700	-6.500	0.100
5.800	-6.315	0.100
5.900	-5.800	0.100
6.000	-8.084	0.100
6.100	0.960	0.100
6.200	-5.657	0.100
6.300	-3.363	0.100
6.400	-12.145	0.100
6.500	-6.946	0.100
6.600	-6.782	0.100
6.700	-1.302	0.100
6.800	-10.102	0.100
6.900	-7.997	0.100
7.000	-7.309	0.100
7.100	-7.318	0.100
7.200	-3.361	0.100
7.300	-9.591	0.100
7.400	-5.293	0.100
7.500	-10.121	0.100
7.600	-7.263	0.100
7.700	-10.117	0.100
7.800	-7.464	0.100
7.900	-2.625	0.100
8.000	-11.796	0.100
8.100	-9.129	0.100
8.200	-10.371	0.100
8.300	-7.631	0.100
8.400	-5.031	0.100
8.500	1.585	0.100
8.600	-9.986	0.100
8.700	-0.716	0.100
8.800	-2.935	0.100
8.900	-7.356	0.100
9.000	-6.439	0.100
9.100	-7.406	0.100
9.200	-7.319	0.100
9.300	-2.705	0.100
9.400	-6.092	0.100
9.500	-8.739	0.100
9.600	-8.472	0.100
9.700	-8.325	0.100
9.800	-4.277	0.100
9.900	-7.080	0.100
10.000	-4.449	0.100
10.100	0.142	0.100
10.200	-5.496	0.100
10.300	-3.097	0.100
10.400	-5.488	0.100
10.500	-8.079	0.100
10.600	-7.704	0.100
10.700	-7.622	0.100
10.800	-6.551	0.100
10.900	-8.170	0.100
11.000	-8.090	0.100
11.100	-6.482	0.100
11.200	-2.867	0.100
11.300	-13.997	0.100
11.400	-13.766	0.100
11.500	-7.936	0.100
11.600	-6.690	0.100
11.700	-14.255	0.100
11.800	-14.867	0.100
11.900	-3.146	0.100
12.000	-7.493	0.100
12.100	4.138	0.100
12.200	0.876	0.100
12.300	-0.704	0.100
12.400	-7.927	0.100
12.500	-13.706	0.100
12.600	-14.226	0.100
12.700	-5.625	0.100
12.800	-5.648	0.100
12.900	-2.434	0.100
13.000	-10.475	0.100
13.100	-9.245	0.100
13.200	4.668	0.100
13.300	-5.156	0.100
13.400	-4.644	0.100
13.500	-1.780	0.100
13.600	-6.180	0.100
13.700	-6.252	0.100
13.800	-12.986	0.100
13.900	-12.935	0.100
14.000	-3.514	0.100
14.100	-2.345	0.100
14.200	-6.335	0.100
14.300	-9.106	0.100
14.400	-7.025	0.100
14.500	-7.282	0.100
14.600	-5.368	0.100
14.700	-8.973	0.100
14.800	-14.085	0.100
14.900	-10.738	0.100
15.000	-4.266	0.100
15.100	1.917	0.100
15.200	3.957	0.100
15.300	-8.817	0.100
15.400	-13.193	0.100
15.500	-3.514	0.100
15.600	-8.780	0.100
15.700	-11.601	0.100
15.800	-3.035	0.100
15.900	-3.150	0.100
16.000	-16.114	0.100
16.100	-7.424	0.100
16.200	-2.389	0.100
16.300	-8.649	0.100
16.400	-0.020	0.100
16.500	-0.841	0.100
16.600	-4.226	0.100
16.700	-3.556	0.100
16.800	-0.947	0.100
16.900	-0.652	0.100
17.000	-0.900	0.100
17.100	-8.209	0.100
17.200	-9.462	0.100
17.300	-15.036	0.100
17.400	-7.801	0.100
17.500	-3.521	0.100
17.600	3.528	0.100
17.700	-1.963	0.100
17.800	1.292	0.100
17.900	-7.172	0.100
18.000	-4.189	0.100
18.100	-5.211	0.100
18.200	-8.667	0.100
18.300	-3.578	0.100
18.400	-3.618	0.100
18.500	-7.837	0.100
18.600	-8.628	0.100
18.700	-10.099	0.100
18.800	-8.138	0.100
18.900	-1.968	0.100
19.000	-4.895	0.100
19.100	5.844	0.100
19.200	-2.181	0.100
19.300	4.711	0.100
19.400	-15.905	0.100
19.500	-2.008	0.100
19.600	-17.195	0.100
19.700	-13.399	0.100
19.800	-4.425	0.100
19.900	-1.530	0.100
20.000	-6.071	0.100
20.100	-8.352	0.100
20.200	-3.173	0.100
20.300	4.237	0.100
20.400	-7.202	0.100
20.500	-5.166	0.100
20.600	-1.041	0.100
20.700	-10.892	0.100
20.800	-1.365	0.100
20.900	-10.556	0.100
21.000	-9.661	0.100
21.100	-2.646	0.100
21.200	-13.377	0.100
21.300	1.620	0.100
21.400	-8.791	0.100
21.500	11.469	0.100
21.600	0.202	0.100
21.700	-8.455	0.100
21.800	-15.374	0.100
21.900	-14.850	0.100
22.000	-6.171	0.100
22.100	7.637	0.100
22.200	-10.022	0.100
22.300	-3.908	0.100
22.400	-2.040	0.100
22.500	-15.292	0.100
22.600	-0.351	0.100
22.700	-6.282	0.100
22.800	-4.320	0.100
22.900	-11.024	0.100
23.000	-5.891	0.100
23.100	-8.256	0.100
23.200	-2.347	0.100
23.300	-13.248	0.100
23.400	-4.971	0.100
23.500	-4.364	0.100
23.600	-9.985	0.100
23.700	-6.536	0.100
23.800	-10.317	0.100
23.900	0.273	0.100
24.000	-1.013	0.100
24.100	-0.866	0.100
24.200	2.454	0.100
24.300	-7.724	0.100
24.400	-8.637	0.100
24.500	-8.969	0.100
24.600	-8.018	0.100
24.700	-6.908	0.100
24.800	-10.273	0.100
24.900	-14.301	0.100
25.000	-9.727	0.100
25.100	-6.452	0.100
25.200	-0.891	0.100
25.300	-2.661	0.100
25.400	-6.118	0.100
25.500	-5.432	0.100
25.600	-4.932	0.100
25.700	-5.280	0.100
25.800	-11.104	0.100
25.900	-14.072	0.100
26.000	6.556	0.100
26.100	2.916	0.100
26.200	7.294	0.100
26.300	-8.119	0.100
26.400	-5.358	0.100
26.500	-18.580	0.100
26.600	-5.808	0.100
26.700	-8.865	0.100
26.800	-9.420	0.100
26.900	-4.226	0.100
27.000	-6.490	0.100
27.100	-7.647	0.100
27.200	0.503	0.100
27.300	-3.397	0.100
27.400	-4.047	0.100
27.500	-7.666	0.100
27.600	-9.310	0.100
27.700	-6.678	0.100
27.800	-6.336	0.100
27.900	-14.861	0.100
28.000	0.700	0.100
28.100	-4.988	0.100
28.200	-1.201	0.100
28.300	-2.822	0.100
28.400	-1.014	0.100
28.500	-2.524	0.100
28.600	0.889	0.100
28.700	-8.230	0.100
28.800	-9.314	0.100
28.900	-6.076	0.100
29.000	-6.594	0.100
29.100	-3.519	0.100
29.200	-12.693	0.100
29.300	-17.652	0.100
29.400	-0.453	0.100
29.500	-4.126	0.100
29.600	6.666	0.100
29.700	-4.103	0.100
29.800	3.868	0.100
29.900	-13.175	0.100
30.000	-11.958	0.100
30.100	2.424	0.100
30.200	5.772	0.100
30.300	4.667	0.100
30.400	12.219	0.100
30.500	7.506	0.100
30.600	1.071	0.100
30.700	10.129	0.100
30.800	1.484	0.100
30.900	3.700	0.100
31.000	15.184	0.100
31.100	2.222	0.100
31.200	4.316	0.100
31.300	9.808	0.100
31.400	8.473	0.100
31.500	-1.655	0.100
31.600	7.457	0.100
31.700	5.475	0.100
31.800	0.914	0.100
31.900	0.832	0.100
32.000	1.288	0.100
32.100	3.647	0.100
32.200	-0.583	0.100
32.300	7.331	0.100
32.400	-5.571	0.100
32.500	-1.723	0.100
32.600	1.226	0.100
32.700	1.663	0.100
32.800	3.564	0.100
32.900	7.539	0.100
33.000	4.060	0.100
33.100	1.222	0.100
33.200	9.491	0.100
33.300	5.277	0.100
33.400	-9.899	0.100
33.500	9.483	0.100
33.600	3.970	0.100
33.700	7.222	0.100
33.800	5.114	0.100
33.900	3.372	0.100
34.000	8.645	0.100
34.100	-1.097	0.100
34.200	6.599	0.100
34.300	12.239	0.100
34.400	4.454	0.100
34.500	-1.925	0.100
34.600	0.964	0.100
34.700	4.876	0.100
34.800	3.788	0.100
34.900	1.814	0.100
35.000	11.120	0.100
35.100	9.201	0.100
35.200	7.868	0.100
35.300	18.011	0.100
35.400	7.493	0.100
35.500	2.434	0.100
35.600	9.459	0.100
35.700	18.716	0.100
35.800	14.184	0.100
35.900	9.272	0.100
36.000	3.607	0.100
36.100	-0.553	0.100
36.200	17.363	0.100
36.300	2.491	0.100
36.400	9.065	0.100
36.500	9.998	0.100
36.600	6.204	0.100
36.700	4.138	0.100
36.800	4.674	0.100
36.900	3.451	0.100
37.000	11.197	0.100
37.100	10.122	0.100
37.200	11.896	0.100
37.300	10.163	0.100
37.400	6.248	0.100
37.500	5.985	0.100
37.600	13.627	0.100
37.700	5.740	0.100
37.800	14.750	0.100
37.900	11.347	0.100
38.000	6.702	0.100
38.100	3.042	0.100
38.200	2.067	0.100
38.300	10.502	0.100
38.400	15.972	0.100
38.500	5.389	0.100
38.600	12.782	0.100
38.700	0.665	0.100
38.800	15.254	0.100
38.900	5.226	0.100
39.000	0.193	0.100
39.100	0.791	0.100
39.200	16.833	0.100
39.300	7.975	0.100
39.400	7.528	0.100
39.500	12.533	0.100
39.600	14.738	0.100
39.700	-3.777	0.100
39.800	4.396	0.100
39.900	4.806	0.100
40.000	8.488	0.100
40.100	9.745	0.100
40.200	14.099	0.100
40.300	1.449	0.100
40.400	-3.390	0.100
40.500	9.400	0.100
40.600	9.277	0.100
40.700	2.304	0.100
40.800	4.728	0.100
40.900	2.197	0.100
41.000	-4.118	0.100
41.100	4.337	0.100
41.200	12.443	0.100
41.300	2.992	0.100
41.400	-2.477	0.100
41.500	-1.862	0.100
41.600	8.243	0.100
41.700	5.262	0.100
41.800	-0.370	0.100
41.900	-2.727	0.100
42.000	9.795	0.100
42.100	6.570	0.100
42.200	5.382	0.100
42.300	3.548	0.100
42.400	3.579	0.100
42.500	-0.864	0.100
42.600	3.152	0.100
42.700	6.507	0.100
42.800	2.586	0.100
42.900	6.247	0.100
43.000	4.264	0.100
43.100	3.874	0.100
43.200	0.253	0.100
43.300	-0.394	0.100
43.400	-2.757	0.100
43.500	0.210	0.100
43.600	-1.902	0.100
43.700	3.017	0.100
43.800	1.843	0.100
43.900	9.698	0.100
44.000	3.896	0.100
44.100	9.785	0.100
44.200	-8.136	0.100
44.300	5.750	0.100
44.400	0.921	0.100
44.500	1.965	0.100
44.600	-7.191	0.100
44.700	5.127	0.100
44.800	7.079	0.100
44.900	5.149	0.100
45.000	0.497	0.100
45.100	4.346	0.100
45.200	3.695	0.100
45.300	0.600	0.100
45.400	-2.416	0.100
45.500	4.381	0.100
45.600	-0.522	0.100
45.700	1.299	0.100
45.800	-8.010	0.100
45.900	-7.204	0.100
46.000	1.414	0.100
46.100	11.854	0.100
46.200	8.745	0.100
46.300	2.540	0.100
46.400	-3.808	0.100
46.500	-3.528	0.100
46.600	-9.899	0.100
46.700	4.853	0.100
46.800	3.067	0.100
46.900	2.201	0.100
47.000	0.591	0.100
47.100	-4.460	0.100
47.200	-5.848	0.100
47.300	-5.002	0.100
47.400	7.266	0.100
47.500	-0.208	0.100
47.600	-9.699	0.100
47.700	4.578	0.100
47.800	3.677	0.100
47.900	-1.827	0.100
48.000	-0.007	0.100
48.100	-1.805	0.100
48.200	3.832	0.100
48.300	3.564	0.100
48.400	-6.210	0.100
48.500	-1.770	0.100
48.600	-4.185	0.100
48.700	-2.336	0.100
48.800	-2.054	0.100
48.900	-4.166	0.100
49.000	2.031	0.100
49.100	4.004	0.100
49.200	-6.322	0.100
49.300	4.337	0.100
49.400	-1.219	0.100
49.500	-0.172	0.100
49.600	-4.466	0.100
49.700	-5.309	0.100
49.800	2.107	0.100
49.900	2.822	0.100
50.000	3.785	0.100
50.100	3.518	0.100
50.200	-7.057	0.100
50.300	4.280	0.100
50.400	7.424	0.100
50.500	-0.220	0.100
50.600	-1.570	0.100
50.700	0.584	0.100
50.800	-8.878	0.100
50.900	-2.869	0.100
51.000	5.998	0.100
51.100	1.943	0.100
51.200	0.193	0.100
51.300	3.791	0.100
51.400	-5.051	0.100
51.500	-1.800	0.100
51.600	-2.412	0.100
51.700	-4.998	0.100
51.800	2.220	0.100
51.900	2.032	0.100
52.000	6.051	0.100
52.100	-2.333	0.100
52.200	-3.221	0.100
52.300	2.190	0.100
52.400	-1.823	0.100
52.500	-6.095	0.100
52.600	1.060	0.100
52.700	2.602	0.100
52.800	0.709	0.100
52.900	-7.761	0.100
53.000	2.314	0.100
53.100	3.853	0.100
53.200	-1.417	0.100
53.300	-6.373	0.100
53.400	4.955	0.100
53.500	-1.953	0.100
53.600	4.515	0.100
53.700	7.094	0.100
53.800	-1.281	0.100
53.900	2.194	0.100
54.000	-6.495	0.100
54.100	3.817	0.100
54.200	-6.406	0.100
54.300	2.293	0.100
54.400	5.387	0.100
54.500	0.849	0.100
54.600	-1.702	0.100
54.700	2.037	0.100
54.800	-3.699	0.100
54.900	6.837	0.100
55.000	4.679	0.100
55.100	-3.131	0.100
55.200	4.562	0.100
55.300	3.603	0.100
55.400	-6.037	0.100
55.500	-1.084	0.100
55.600	10.614	0.100
55.700	-0.846	0.100
55.800	-6.274	0.100
55.900	-8.362	0.100
56.000	2.143	0.100
56.100	3.752	0.100
56.200	-8.669	0.100
56.300	3.210	0.100
56.400	4.763	0.100
56.500	-2.123	0.100
56.600	6.849	0.100
56.700	-12.129	0.100
56.800	2.253	0.100
56.900	-0.697	0.100
57.000	6.710	0.100
57.100	0.066	0.100
57.200	-1.057	0.100
57.300	-5.853	0.100
57.400	4.419	0.100
57.500	3.117	0.100
57.600	-0.359	0.100
57.700	-12.209	0.100
57.800	-3.611	0.100
57.900	11.560	0.100
58.000	-4.775	0.100
58.100	0.737	0.100
58.200	-4.661	0.100
58.300	-9.065	0.100
58.400	2.499	0.100
58.500	7.559	0.100
58.600	1.820	0.100
58.700	-1.257	0.100
58.800	-7.078	0.100
58.900	1.277	0.100
59.000	5.855	0.100
59.100	-1.135	0.100
59.200	10.180	0.100
59.300	1.430	0.100
59.400	-7.663	0.100
59.500	2.952	0.100
59.600	9.010	0.100
59.700	7.248	0.100
59.800	-2.461	0.100
59.900	3.268	0.100
60.000	-5.842	0.100
60.100	-3.345	0.100
60.200	9.306	0.100
60.300	1.723	0.100
60.400	6.338	0.100
60.500	2.435	0.100
60.600	4.805	0.100
60.700	-6.218	0.100
60.800	-12.049	0.100
60.900	-5.833	0.100
61.000	-1.277	0.100
61.100	2.263	0.100
61.200	6.563	0.100
61.300	-14.509	0.100
61.400	5.062	0.100
61.500	2.950	0.100
61.600	-0.032	0.100
61.700	7.828	0.100
61.800	3.766	0.100
61.900	2.148	0.100
62.000	-6.094	0.100
62.100	-0.064	0.100
62.200	-1.224	0.100
62.300	-12.836	0.100
62.400	10.896	0.100
62.500	10.908	0.100
62.600	12.465	0.100
62.700	-7.211	0.100
62.800	1.742	0.100
62.900	1.487	0.100
63.000	12.910	0.100
63.100	3.385	0.100
63.200	-8.742	0.100
63.300	0.051	0.100
63.400	-0.545	0.100
63.500	-0.014	0.100
63.600	2.258	0.100
63.700	7.657	0.100
63.800	4.684	0.100
63.900	-1.364	0.100
64.000	1.960	0.100
64.100	3.361	0.100
64.200	10.983	0.100
64.300	4.679	0.100
64.400	0.538	0.100
64.500	-4.241	0.100
64.600	0.197	0.100
64.700	-4.904	0.100
64.800	12.541	0.100
64.900	1.359	0.100
65.000	-6.288	0.100
65.100	-1.093	0.100
65.200	7.993	0.100
65.300	3.788	0.100
65.400	-0.984	0.100
65.500	-0.018	0.100
65.600	2.789	0.100
65.700	10.356	0.100
65.800	4.737	0.100
65.900	-0.436	0.100
66.000	0.299	0.100
66.100	-3.307	0.100
66.200	13.984	0.100
66.300	6.821	0.100
66.400	-8.101	0.100
66.500	-7.352	0.100
66.600	-5.547	0.100
66.700	2.876	0.100
66.800	2.595	0.100
66.900	6.459	0.100
67.000	8.444	0.100
67.100	9.951	0.100
67.200	-0.859	0.100
67.300	6.928	0.100
67.400	-3.168	0.100
67.500	4.714	0.100
67.600	-4.953	0.100
67.700	10.262	0.100
67.800	0.397	0.100
67.900	3.177	0.100
68.000	0.669	0.100
68.100	8.246	0.100
68.200	4.879	0.100
68.300	-1.736	0.100
68.400	-8.007	0.100
68.500	-7.526	0.100
68.600	4.598	0.100
68.700	2.261	0.100
68.800	4.293	0.100
68.900	1.127	0.100
69.000	3.897	0.100
69.100	-2.303	0.100
69.200	-5.121	0.100
69.300	3.251	0.100
69.400	2.182	0.100
69.500	1.999	0.100
69.600	8.736	0.100
69.700	5.145	0.100
69.800	3.878	0.100
69.900	7.886	0.100
70.000	-1.911	0.100
70.100	-1.583	0.100
70.200	-7.661	0.100
70.300	2.581	0.100
70.400	11.636	0.100
70.500	1.185	0.100
70.600	-4.213	0.100
70.700	-2.558	0.100
70.800	12.511	0.100
70.900	6.410	0.100
71.000	3.843	0.100
71.100	12.384	0.100
71.200	-0.478	0.100
71.300	-0.048	0.100
71.400	3.005	0.100
71.500	-4.248	0.100
71.600	-1.859	0.100
71.700	4.866	0.100
71.800	-7.999	0.100
71.900	8.838	0.100
72.000	-0.769	0.100
72.100	2.115	0.100
72.200	1.369	0.100
72.300	0.968	0.100
72.400	2.423	0.100
72.500	2.236	0.100
72.600	7.068	0.100
72.700	3.243	0.100
72.800	3.840	0.100
72.900	9.320	0.100
73.000	8.736	0.100
73.100	-0.884	0.100
73.200	1.250	0.100
73.300	2.956	0.100
73.400	2.832	0.100
73.500	6.107	0.100
73.600	1.704	0.100
73.700	2.704	0.100
73.800	5.783	0.100
73.900	6.346	0.100
74.000	4.057	0.100
74.100	4.778	0.100
74.200	1.905	0.100
74.300	2.513	0.100
74.400	1.813	0.100
74.500	5.635	0.100
74.600	-8.628	0.100
74.700	10.823	0.100
74.800	5.606	0.100
74.900	4.333	0.100
75.000	-0.784	0.100
75.100	6.614	0.100
75.200	-5.191	0.100
75.300	1.368	0.100
75.400	3.100	0.100
75.500	1.217	0.100
75.600	-2.458	0.100
75.700	4.695	0.100
75.800	11.596	0.100
75.900	5.558	0.100
76.000	-0.210	0.100
76.100	10.653	0.100
76.200	6.594	0.100
76.300	5.891	0.100
76.400	6.875	0.100
76.500	0.312	0.100
76.600	0.731	0.100
76.700	7.089	0.100
76.800	-3.602	0.100
76.900	-4.790	0.100
77.000	-0.265	0.100
77.100	4.479	0.100
77.200	8.166	0.100
77.300	10.252	0.100
77.400	0.699	0.100
77.500	-0.758	0.100
77.600	-5.378	0.100
77.700	-3.195	0.100
77.800	5.938	0.100
77.900	-0.486	0.100
78.000	6.130	0.100
78.100	8.126	0.100
78.200	6.303	0.100
78.300	-0.434	0.100
78.400	3.963	0.100
78.500	-1.332	0.100
78.600	0.011	0.100
78.700	7.385	0.100
78.800	1.212	0.100
78.900	11.607	0.100
79.000	5.279	0.100
79.100	0.423	0.100
79.200	4.953	0.100
79.300	-2.357	0.100
79.400	4.163	0.100
79.500	-5.340	0.100
79.600	8.191	0.100
79.700	5.266	0.100
79.800	0.768	0.100
79.900	-1.326	0.100
80.000	11.732	0.100
80.100	-2.701	0.100
80.200	2.426	0.100
80.300	-1.123	0.100
80.400	5.781	0.100
80.500	4.225	0.100
80.600	0.782	0.100
80.700	1.377	0.100
80.800	10.373	0.100
80.900	2.508	0.100
81.000	8.642	0.100
81.100	5.196	0.100
81.200	3.747	0.100
81.300	-1.059	0.100
81.400	5.121	0.100
81.500	8.703	0.100
81.600	0.416	0.100
81.700	7.414	0.100
81.800	-7.127	0.100
81.900	1.901	0.100
82.000	9.347	0.100
82.100	4.001	0.100
82.200	0.167	0.100
82.300	4.802	0.100
82.400	12.694	0.100
82.500	-0.861	0.100
82.600	5.390	0.100
82.700	1.380	0.100
82.800	12.337	0.100
82.900	7.541	0.100
83.000	8.372	0.100
83.100	-3.313	0.100
83.200	5.273	0.100
83.300	6.378	0.100
83.400	5.105	0.100
83.500	2.534	0.100
83.600	5.693	0.100
83.700	0.538	0.100
83.800	2.679	0.100
83.900	3.436	0.100
84.000	1.234	0.100
84.100	11.845	0.100
84.200	6.564	0.100
84.300	16.127	0.100
84.400	-1.933	0.100
84.500	-0.654	0.100
84.600	-4.427	0.100
84.700	9.366	0.100
84.800	-2.919	0.100
84.900	15.946	0.100
85.000	5.193	0.100
85.100	6.729	0.100
85.200	-1.335	0.100
85.300	-5.676	0.100
85.400	7.674	0.100
85.500	8.516	0.100
85.600	2.501	0.100
85.700	2.683	0.100
85.800	-4.067	0.100
85.900	4.592	0.100
86.000	9.977	0.100
86.100	-0.560	0.100
86.200	4.736	0.100
86.300	4.435	0.100
86.400	3.456	0.100
86.500	2.703	0.100
86.600	-0.639	0.100
86.700	3.826	0.100
86.800	7.010	0.100
86.900	13.867	0.100
87.000	7.551	0.100
87.100	6.624	0.100
87.200	0.407	0.100
87.300	0.194	0.100
87.400	6.711	0.100
87.500	5.578	0.100
87.600	4.264	0.100
87.700	0.660	0.100
87.800	-2.567	0.100
87.900	-2.233	0.100
88.000	-0.606	0.100
88.100	7.921	0.100
88.200	0.397	0.100
88.300	1.771	0.100
88.400	8.943	0.100
88.500	9.001	0.100
88.600	1.557	0.100
88.700	2.910	0.100
88.800	-4.981	0.100
88.900	10.237	0.100
89.000	8.974	0.100
89.100	-0.732	0.100
89.200	2.439	0.100
89.300	7.214	0.100
89.400	-7.032	0.100
89.500	2.927	0.100
89.600	8.884	0.100
89.700	4.304	0.100
89.800	2.099	0.100
89.900	-4.465	0.100
90.000	2.924	0.100
90.100	-5.548	0.100
90.200	1.778	0.100
90.300	-2.477	0.100
90.400	-9.987	0.100
90.500	-3.720	0.100
90.600	-10.635	0.100
90.700	-12.342	0.100
90.800	-17.928	0.100
90.900	-13.350	0.100
91.000	-7.395	0.100
91.100	-21.727	0.100
91.200	-17.003	0.100
91.300	-16.022	0.100
91.400	-6.400	0.100
91.500	-10.822	0.100
91.600	-14.144	0.100
91.700	-16.992	0.100
91.800	-11.147	0.100
91.900	-13.068	0.100
92.000	-9.497	0.100
92.100	-8.507	0.100
92.200	-19.969	0.100
92.300	-22.528	0.100
92.400	-24.415	0.100
92.500	-13.851	0.100
92.600	-13.062	0.100
92.700	-13.952	0.100
92.800	-17.834	0.100
92.900	-11.988	0.100
93.000	-17.833	0.100
93.100	-21.538	0.100
93.200	-12.909	0.100
93.300	-17.869	0.100
93.400	-23.361	0.100
93.500	-15.790	0.100
93.600	-22.206	0.100
93.700	-20.641	0.100
93.800	-12.624	0.100
93.900	-9.104	0.100
94.000	-14.151	0.100
94.100	-15.482	0.100
94.200	-18.524	0.100
94.300	-6.302	0.100
94.400	-15.576	0.100
94.500	-18.525	0.100
94.600	-14.427	0.100
94.700	-5.989	0.100
94.800	-14.207	0.100
94.900	-18.440	0.100
95.000	-9.238	0.100
95.100	-12.432	0.100
95.200	-14.325	0.100
95.300	-13.956	0.100
95.400	-7.069	0.100
95.500	-6.127	0.100
95.600	-4.408	0.100
95.700	-15.208	0.100
95.800	-10.408	0.100
95.900	-13.718	0.100
96.000	-9.222	0.100
96.100	-15.721	0.100
96.200	-15.292	0.100
96.300	-11.939	0.100
96.400	-24.174	0.100
96.500	-10.510	0.100
96.600	-11.632	0.100
96.700	-12.067	0.100
96.800	-7.160	0.100
96.900	-14.143	0.100
97.000	-2.902	0.100
97.100	-6.936	0.100
97.200	-9.199	0.100
97.300	-7.390	0.100
97.400	3.609	0.100
97.500	-13.201	0.100
97.600	-7.893	0.100
97.700	-5.530	0.100
97.800	-13.114	0.100
97.900	-10.390	0.100
98.000	-14.163	0.100
98.100	-1.934	0.100
98.200	-9.587	0.100
98.300	-14.968	0.100
98.400	-16.056	0.100
98.500	-2.644	0.100
98.600	-6.327	0.100
98.700	1.509	0.100
98.800	-16.145	0.100
98.900	-8.223	0.100
99.000	-2.417	0.100
99.100	-10.497	0.100
99.200	-5.472	0.100
99.300	-6.871	0.100
99.400	-12.385	0.100
99.500	-7.761	0.100
99.600	-9.964	0.100
99.700	-7.570	0.100
99.800	-3.440	0.100
99.900	-16.361	0.100
100.000	-17.661	0.100
100.100	1.006	0.100
100.200	-3.398	0.100
100.300	-2.990	0.100
100.400	-2.108	0.100
100.500	-12.668	0.100
100.600	-7.363	0.100
100.700	-5.213	0.100
100.800	-16.271	0.100
100.900	-4.028	0.100
101.000	-3.727	0.100
101.100	-4.824	0.100
101.200	-12.645	0.100
101.300	-0.027	0.100
101.400	-7.177	0.100
101.500	-8.334	0.100
101.600	-7.783	0.100
101.700	-6.794	0.100
101.800	-9.418	0.100
101.900	-8.027	0.100
102.000	-11.411	0.100
102.100	-10.125	0.100
102.200	0.515	0.100
102.300	-7.769	0.100
102.400	-12.863	0.100
102.500	-12.250	0.100
102.600	-4.867	0.100
102.700	-10.795	0.100
102.800	-11.009	0.100
102.900	-8.355	0.100
103.000	-10.382	0.100
103.100	-10.173	0.100
103.200	-5.883	0.100
103.300	-5.825	0.100
103.400	0.103	0.100
103.500	-9.398	0.100
103.600	-9.315	0.100
103.700	-9.052	0.100
103.800	-10.407	0.100
103.900	-4.754	0.100
104.000	-9.433	0.100
104.100	-14.365	0.100
104.200	-10.751	0.100
104.300	0.184	0.100
104.400	-5.886	0.100
104.500	-11.128	0.100
104.600	-3.589	0.100
104.700	-6.949	0.100
104.800	-4.749	0.100
104.900	-6.599	0.100
105.000	-10.789	0.100
105.100	-5.094	0.100
105.200	-8.389	0.100
105.300	-3.207	0.100
105.400	-9.260	0.100
105.500	-7.006	0.100
105.600	-12.138	0.100
105.700	-10.156	0.100
105.800	-10.882	0.100
105.900	-7.744	0.100
106.000	1.935	0.100
106.100	3.639	0.100
106.200	-4.041	0.100
106.300	-9.379	0.100
106.400	-21.024	0.100
106.500	-5.102	0.100
106.600	-3.787	0.100
106.700	-0.732	0.100
106.800	-7.087	0.100
106.900	-9.766	0.100
107.000	-0.029	0.100
107.100	-2.273	0.100
107.200	2.899	0.100
107.300	-12.893	0.100
107.400	-7.891	0.100
107.500	-0.678	0.100
107.600	-14.213	0.100
107.700	-1.355	0.100
107.800	-5.884	0.100
107.900	-20.252	0.100
108.000	-13.382	0.100
108.100	-14.197	0.100
108.200	-2.273	0.100
108.300	0.730	0.100
108.400	-7.608	0.100
108.500	-14.419	0.100
108.600	-5.859	0.100
108.700	-9.865	0.100
108.800	-1.352	0.100
108.900	-14.408	0.100
109.000	-4.447	0.100
109.100	-9.913	0.100
109.200	-9.479	0.100
109.300	-8.635	0.100
109.400	-12.058	0.100
109.500	4.344	0.100
109.600	-17.650	0.100
109.700	-8.267	0.100
109.800	-5.388	0.100
109.900	2.558	0.100
110.000	-1.815	0.100
110.100	-8.374	0.100
110.200	-4.710	0.100
110.300	-17.378	0.100
110.400	-16.945	0.100
110.500	-0.802	0.100
110.600	-4.980	0.100
110.700	-11.132	0.100
110.800	-13.342	0.100
110.900	-3.893	0.100
111.000	-2.911	0.100
111.100	-7.273	0.100
111.200	-5.458	0.100
111.300	-6.407	0.100
111.400	-14.193	0.100
111.500	-5.716	0.100
111.600	-17.366	0.100
111.700	-8.076	0.100
111.800	-4.736	0.100
111.900	-9.378	0.100
112.000	-6.010	0.100
112.100	-12.975	0.100
112.200	-10.225	0.100
112.300	-1.934	0.100
112.400	-6.848	0.100
112.500	-6.543	0.100
112.600	-4.361	0.100
112.700	-15.805	0.100
112.800	-9.280	0.100
112.900	-15.299	0.100
113.000	5.825	0.100
113.100	-1.389	0.100
113.200	-0.600	0.100
113.300	-16.404	0.100
113.400	-9.537	0.100
113.500	-1.690	0.100
113.600	-5.569	0.100
113.700	-15.622	0.100
113.800	-5.868	0.100
113.900	-12.206	0.100
114.000	-5.288	0.100
114.100	-0.668	0.100
114.200	-2.871	0.100
114.300	-4.213	0.100
114.400	-12.998	0.100
114.500	-8.352	0.100
114.600	-8.602	0.100
114.700	-3.768	0.100
114.800	-17.402	0.100
114.900	-14.617	0.100
115.000	-4.595	0.100
115.100	-8.166	0.100
115.200	-5.080	0.100
115.300	-3.604	0.100
115.400	-16.222	0.100
115.500	-2.214	0.100
115.600	-3.188	0.100
115.700	0.963	0.100
115.800	-7.383	0.100
115.900	-7.175	0.099
116.000	-5.446	0.100
116.100	-11.985	0.100
116.200	-10.085	0.099
116.300	-7.962	0.100
116.400	-4.975	0.100
116.500	-1.289	0.100
116.600	-6.126	0.099
116.700	-8.238	0.100
116.800	-7.779	0.100
116.900	3.111	0.100
117.000	-6.286	0.100
117.100	-1.319	0.100
117.200	-16.215	0.100
117.300	-8.770	0.100
117.400	-13.288	0.099
117.500	-1.590	0.099
117.600	-1.859	0.100
117.700	-10.284	0.099
117.800	-8.991	0.099
117.900	-6.998	0.100
118.000	-16.689	0.099
118.100	-7.357	0.100
118.200	-7.103	0.100
118.300	0.437	0.100
118.400	-1.605	0.100
118.500	-10.897	0.100
118.600	-8.303	0.100
118.700	-11.045	0.099
118.800	-11.745	0.099
118.900	-6.674	0.099
119.000	-12.791	0.099
119.100	-10.563	0.099
119.200	-0.187	0.099
119.300	-6.894	0.099
119.400	-7.236	0.099
119.500	-9.915	0.099
119.600	-11.615	0.100
119.700	-11.580	0.099
119.800	-0.190	0.099
119.900	-5.325	0.100
120.000	-9.130	0.099
120.100	-2.534	0.099
120.200	-6.748	0.100
120.300	-6.238	0.099
120.400	-9.057	0.099
120.500	-8.441	0.099
120.600	-11.925	0.099
120.700	-3.598	0.099
120.800	-3.529	0.099
120.900	-13.764	0.099
121.000	-13.805	0.100
121.100	-0.231	0.099
121.200	3.649	0.099
121.300	0.099	0.099
121.400	-14.204	0.099
121.500	-2.993	0.099
121.600	1.636	0.099
121.700	-13.755	0.099
121.800	-14.952	0.099
121.900	-17.639	0.099
122.000	-2.989	0.099
122.100	1.961	0.099
122.200	4.381	0.099
122.300	0.049	0.099
122.400	-9.568	0.099
122.500	-15.191	0.099
122.600	2.244	0.099
122.700	-2.802	0.099
122.800	-5.400	0.099
122.900	-3.099	0.099
123.000	-10.513	0.099
123.100	-9.619	0.099
123.200	-15.149	0.099
123.300	5.006	0.099
123.400	-6.191	0.099
123.500	-9.036	0.099
123.600	-6.584	0.099
123.700	-8.567	0.099
123.800	-4.000	0.099
123.900	-9.916	0.099
124.000	-4.235	0.099
124.100	-15.497	0.099
124.200	-4.291	0.099
124.300	-12.836	0.099
124.400	-10.273	0.099
124.500	-1.406	0.099
124.600	-1.835	0.099
124.700	-6.870	0.099
124.800	-17.279	0.099
124.900	-4.865	0.099
125.000	-10.198	0.099
125.100	-4.092	0.099
125.200	-5.118	0.099
125.300	-4.439	0.099
125.400	-6.939	0.099
125.500	-10.065	0.099
125.600	-6.920	0.099
125.700	-15.883	0.099
125.800	3.187	0.099
125.900	-4.924	0.099
126.000	0.021	0.099
126.100	-11.085	0.099
126.200	-14.553	0.099
126.300	-16.117	0.099
126.400	-1.518	0.099
126.500	-8.142	0.099
126.600	-15.123	0.099
126.700	-1.926	0.099
126.800	-4.771	0.099
126.900	-12.088	0.099
127.000	4.838	0.099
127.100	-6.885	0.099
127.200	-3.764	0.099
127.300	-8.841	0.099
127.400	0.870	0.099
127.500	-4.956	0.099
127.600	-6.758	0.099
127.700	-8.695	0.099
127.800	-5.399	0.099
127.900	-5.099	0.099
128.000	-5.710	0.099
128.100	-0.745	0.099
128.200	-6.844	0.099
128.300	-10.167	0.099
128.400	-9.992	0.099
128.500	-9.614	0.099
128.600	-5.403	0.099
128.700	1.285	0.099
128.800	-1.618	0.099
128.900	-5.126	0.099
129.000	-6.806	0.099
129.100	-6.853	0.099
129.200	-5.609	0.099
129.300	-7.426	0.099
129.400	-11.262	0.099
129.500	-9.783	0.099
129.600	-2.287	0.099
129.700	-3.127	0.099
129.800	-5.880	0.099
129.900	-5.795	0.099
130.000	-7.363	0.099
130.100	-0.347	0.099
130.200	-8.324	0.099
130.300	-0.882	0.099
130.400	-4.958	0.099
130.500	-6.539	0.099
130.600	-10.881	0.099
130.700	-8.998	0.099
130.800	0.117	0.099
130.900	-5.483	0.099
131.000	-7.729	0.099
131.100	-4.997	0.099
131.200	-1.675	0.099
131.300	-11.804	0.099
131.400	2.613	0.099
131.500	-2.245	0.099
131.600	-5.598	0.099
131.700	-9.160	0.099
131.800	-10.328	0.099
131.900	-2.353	0.099
132.000	-3.297	0.099
132.100	-3.777	0.099
132.200	-12.556	0.099
132.300	-4.397	0.099
132.400	-6.974	0.099
132.500	0.515	0.099
132.600	-5.898	0.099
132.700	0.149	0.099
132.800	3.538	0.099
132.900	-8.637	0.099
133.000	-10.950	0.099
133.100	-6.708	0.099
133.200	-7.627	0.099
133.300	-5.058	0.099
133.400	-12.907	0.099
133.500	3.255	0.099
133.600	-5.896	0.099
133.700	-8.776	0.099
133.800	-5.096	0.099
133.900	-7.433	0.099
134.000	-18.675	0.099
134.100	-0.195	0.099
134.200	-1.893	0.099
134.300	0.033	0.099
134.400	0.256	0.099
134.500	-9.472	0.099
134.600	-10.538	0.099
134.700	1.823	0.099
134.800	-8.143	0.099
134.900	-20.517	0.099
135.000	-11.790	0.099
135.100	-1.346	0.099
135.200	-4.121	0.099
135.300	0.804	0.099
135.400	-6.102	0.099
135.500	-8.234	0.099
135.600	-2.129	0.099
135.700	-3.260	0.099
135.800	-9.694	0.099
135.900	-5.044	0.099
136.000	-8.591	0.099
136.100	-5.358	0.099
136.200	-8.069	0.099
136.300	-5.898	0.099
136.400	3.659	0.099
136.500	-13.019	0.099
136.600	-8.743	0.099
136.700	-5.229	0.099
136.800	-9.629	0.099
136.900	-17.695	0.099
137.000	4.890	0.099
137.100	2.240	0.099
137.200	-5.987	0.099
137.300	-9.338	0.099
137.400	-11.868	0.099
137.500	-4.359	0.099
137.600	-7.436	0.099
137.700	-8.114	0.099
137.800	-9.259	0.099
137.900	-10.004	0.099
138.000	-6.763	0.099
138.100	-3.700	0.099
138.200	-9.754	0.099
138.300	-2.347	0.099
138.400	-20.006	0.099
138.500	-0.653	0.099
138.600	-6.645	0.099
138.700	-10.481	0.099
138.800	-6.307	0.099
138.900	-3.389	0.099
139.000	-1.044	0.099
139.100	-11.015	0.099
139.200	-4.019	0.099
139.300	-13.107	0.099
139.400	-0.076	0.099
139.500	-7.902	0.099
139.600	-8.511	0.099
139.700	-7.081	0.099
139.800	-1.394	0.099
139.900	-4.910	0.099
140.000	-10.096	0.099
140.100	-7.287	0.099
140.200	4.762	0.099
140.300	-3.920	0.099
140.400	-8.438	0.099
140.500	-13.196	0.099
140.600	-11.053	0.099
140.700	-4.404	0.099
140.800	3.984	0.099
140.900	-4.749	0.099
141.000	-8.749	0.099
141.100	-0.554	0.099
141.200	-3.721	0.099
141.300	-3.180	0.099
141.400	-9.163	0.099
141.500	-5.709	0.099
141.600	-9.060	0.099
141.700	-2.405	0.099
141.800	-10.466	0.099
141.900	8.171	0.099
142.000	-5.724	0.099
142.100	-9.494	0.099
142.200	-11.974	0.099
142.300	-8.090	0.099
142.400	-9.114	0.099
142.500	0.971	0.099
142.600	-2.004	0.099
142.700	0.596	0.099
142.800	-15.094	0.099
142.900	-3.775	0.099
143.000	-14.331	0.099
143.100	-8.096	0.099
143.200	-5.318	0.099
143.300	-3.190	0.099
143.400	3.222	0.099
143.500	-0.792	0.099
143.600	-0.821	0.099
143.700	-10.576	0.099
143.800	-8.935	0.099
143.900	-12.210	0.099
144.000	-6.427	0.099
144.100	-8.452	0.099
144.200	-5.778	0.099
144.300	-8.225	0.099
144.400	3.136	0.099
144.500	-7.092	0.099
144.600	-8.888	0.099
144.700	-7.887	0.099
144.800	-4.904	0.099
144.900	-1.375	0.099
145.000	-5.953	0.099
145.100	-17.834	0.099
145.200	-2.340	0.099
145.300	-4.641	0.099
145.400	-10.902	0.099
145.500	-5.392	0.099
145.600	3.271	0.099
145.700	-1.219	0.099
145.800	-6.889	0.099
145.900	-3.790	0.099
146.000	-7.756	0.099
146.100	-4.000	0.099
146.200	-7.080	0.099
146.300	-3.544	0.099
146.400	-9.201	0.099
146.500	-4.263	0.099
146.600	-3.374	0.099
146.700	-6.250	0.099
146.800	-2.036	0.099
146.900	0.259	0.099
147.000	-10.383	0.099
147.100	-11.894	0.099
147.200	-1.253	0.099
147.300	-11.181	0.099
147.400	1.332	0.099
147.500	-1.305	0.099
147.600	2.545	0.099
147.700	-11.300	0.099
147.800	-5.643	0.099
147.900	-5.721	0.099
148.000	-1.127	0.099
148.100	-7.380	0.099
148.200	-7.660	0.099
148.300	2.335	0.099
148.400	-10.573	0.099
148.500	-9.720	0.099
148.600	-9.383	0.099
148.700	-8.172	0.099
148.800	-8.154	0.099
148.900	-13.096	0.099
149.000	-11.187	0.099
149.100	-0.868	0.099
149.200	-13.209	0.099
149.300	-1.624	0.099
149.400	-2.859	0.099
149.500	-4.270	0.099
149.600	-11.571	0.099
149.700	-7.844	0.099
149.800	0.862	0.099
149.900	-9.819	0.099
150.000	-6.011	0.099
150.100	-11.601	0.099
150.200	-2.109	0.099
150.300	-7.968	0.099
150.400	-4.349	0.099
150.500	-10.464	0.099
150.600	-1.352	0.099
150.700	-1.437	0.099
150.800	-7.511	0.099
150.900	-7.997	0.099
151.000	-5.316	0.099
151.100	-13.883	0.099
151.200	-13.634	0.099
151.300	-7.497	0.099
151.400	-2.769	0.099
151.500	0.391	0.099
151.600	-2.140	0.099
151.700	-2.007	0.099
151.800	-6.138	0.099
151.900	-6.729	0.099
152.000	-11.679	0.099
152.100	-8.611	0.099
152.200	0.350	0.099
152.300	-6.655	0.099
152.400	-3.924	0.099
152.500	-16.364	0.099
152.600	-1.698	0.099
152.700	0.451	0.099
152.800	-12.200	0.099
152.900	-13.590	0.099
153.000	-3.728	0.099
153.100	-6.662	0.099
153.200	0.690	0.099
153.300	-3.269	0.099
153.400	2.139	0.099
153.500	0.401	0.099
153.600	-4.314	0.099
153.700	-8.740	0.099
153.800	-6.407	0.099
153.900	-4.048	0.099
154.000	-5.441	0.099
154.100	-7.527	0.099
154.200	-4.217	0.099
154.300	-4.568	0.099
154.400	-10.632	0.099
154.500	-4.656	0.099
154.600	-11.089	0.099
154.700	-2.549	0.099
154.800	0.193	0.099
154.900	-14.480	0.099
155.000	-13.197	0.099
155.100	-2.361	0.099
155.200	5.848	0.099
155.300	-5.877	0.099
155.400	-4.382	0.099
155.500	-9.467	0.099
155.600	7.816	0.099
155.700	2.345	0.099
155.800	-6.976	0.099
155.900	-9.098	0.099
156.000	-12.202	0.099
156.100	-8.546	0.099
156.200	-2.663	0.099
156.300	-3.853	0.099
156.400	-12.152	0.099
156.500	-11.747	0.099
156.600	-12.415	0.099
156.700	-6.162	0.099
156.800	-1.831	0.099
156.900	-18.480	0.099
157.000	-1.177	0.099
157.100	-6.074	0.099
157.200	-6.524	0.099
157.300	-4.245	0.099
157.400	-6.995	0.099
157.500	-6.084	0.099
157.600	-1.333	0.099
157.700	-9.860	0.099
157.800	-3.812	0.099
157.900	-7.293	0.099
158.000	-10.589	0.099
158.100	-5.637	0.099
158.200	3.341	0.099
158.300	-8.141	0.099
158.400	-14.624	0.099
158.500	-10.062	0.099
158.600	-0.906	0.099
158.700	0.683	0.099
158.800	-7.927	0.099
158.900	8.059	0.099
159.000	-11.280	0.099
159.100	-8.925	0.099
159.200	-15.678	0.099
159.300	-17.493	0.099
159.400	-13.119	0.099
159.500	6.512	0.099
159.600	-4.540	0.099
159.700	-7.343	0.099
159.800	6.422	0.099
159.900	-8.490	0.099
160.000	-10.345	0.099
160.100	-0.005	0.099
160.200	-12.038	0.099
160.300	-16.341	0.099
160.400	-0.860	0.099
160.500	-6.648	0.099
160.600	3.568	0.099
160.700	-3.294	0.099
160.800	-2.585	0.099
160.900	-11.359	0.099
161.000	-9.518	0.099
161.100	-5.720	0.099
161.200	-4.222	0.099
161.300	-8.444	0.099
161.400	-11.513	0.099
161.500	-15.153	0.099
161.600	-6.261	0.099
161.700	-1.411	0.099
161.800	-3.837	0.099
161.900	-11.184	0.099
162.000	1.349	0.099
162.100	-3.971	0.099
162.200	-13.274	0.099
162.300	-1.846	0.099
162.400	-5.267	0.099
162.500	-12.659	0.099
162.600	-5.327	0.099
162.700	-9.774	0.099
162.800	-1.922	0.099
162.900	-3.217	0.099
163.000	-12.911	0.099
163.100	-2.148	0.099
163.200	-4.341	0.099
163.300	-6.480	0.099
163.400	-3.838	0.099
163.500	-13.035	0.099
163.600	-10.447	0.099
163.700	-1.416	0.099
163.800	-1.690	0.099
163.900	-8.648	0.099
164.000	-11.179	0.099
164.100	-13.884	0.099
164.200	-5.324	0.099
164.300	-3.126	0.099
164.400	-0.309	0.099
164.500	-4.282	0.099
164.600	-4.825	0.099
164.700	-2.587	0.099
164.800	-11.663	0.099
164.900	-1.850	0.099
165.000	-12.848	0.099
165.100	-2.953	0.099
165.200	-11.590	0.099
165.300	2.141	0.099
165.400	2.275	0.099
165.500	-7.544	0.099
165.600	-5.336	0.099
165.700	-5.756	0.099
165.800	-13.999	0.099
165.900	-7.148	0.099
166.000	2.784	0.099
166.100	-7.986	0.099
166.200	-6.674	0.099
166.300	-8.816	0.099
166.400	-2.198	0.099
166.500	-4.551	0.099
166.600	-6.771	0.099
166.700	-10.828	0.099
166.800	-2.819	0.099
166.900	-5.164	0.099
167.000	-9.040	0.099
167.100	-1.951	0.099
167.200	-0.215	0.099
167.300	-7.599	0.099
167.400	-16.430	0.099
167.500	-8.943	0.099
167.600	-7.614	0.099
167.700	-1.944	0.099
167.800	-4.074	0.099
167.900	-5.442	0.099
168.000	-9.629	0.099
168.100	-4.006	0.099
168.200	-7.051	0.099
168.300	-8.879	0.099
168.400	-15.986	0.099
168.500	-13.031	0.099
168.600	-0.987	0.099
168.700	2.275	0.099
168.800	0.371	0.100
168.900	-0.356	0.100
169.000	-5.976	0.099
169.100	-15.480	0.100
169.200	-6.088	0.100
169.300	-2.581	0.100
169.400	0.554	0.100
169.500	-6.389	0.100
169.600	-14.187	0.100
169.700	-1.544	0.100
169.800	-7.523	0.100
169.900	-6.186	0.100
170.000	1.516	0.100
170.100	-7.518	0.100
170.200	-8.922	0.100
170.300	-7.006	0.100
170.400	-16.113	0.100
170.500	-2.422	0.100
170.600	-6.030	0.100
170.700	-3.554	0.100
170.800	0.451	0.100
170.900	-11.002	0.100
171.000	-4.767	0.100
171.100	-13.851	0.100
171.200	6.328	0.100
171.300	-4.552	0.100
171.400	-5.143	0.100
171.500	-9.637	0.100
171.600	-1.003	0.100
171.700	0.052	0.100
171.800	-8.828	0.100
171.900	-7.833	0.100
172.000	-15.767	0.100
172.100	-4.448	0.100
172.200	-6.039	0.100
172.300	-2.214	0.100
172.400	-5.745	0.100
172.500	-7.087	0.100
172.600	-4.847	0.100
172.700	-3.975	0.100
172.800	-5.188	0.100
172.900	-9.601	0.100
173.000	-2.985	0.100
173.100	-8.727	0.100
173.200	-8.782	0.100
173.300	0.748	0.100
173.400	-1.905	0.100
173.500	-13.551	0.100
173.600	0.643	0.100
173.700	-2.130	0.100
173.800	-3.023	0.100
173.900	-6.497	0.100
174.000	-11.126	0.100
174.100	-5.478	0.100
174.200	-0.221	0.100
174.300	-3.610	0.100
174.400	-7.708	0.100
174.500	3.672	0.100
174.600	-3.081	0.100
174.700	-10.984	0.100
174.800	-3.954	0.100
174.900	-16.900	0.100
175.000	-7.698	0.100
175.100	1.005	0.100
175.200	-6.067	0.100
175.300	-6.109	0.100
175.400	1.411	0.100
175.500	-3.032	0.100
175.600	-5.059	0.100
175.700	4.364	0.100
175.800	-2.556	0.100
175.900	-9.679	0.100
176.000	-9.419	0.100
176.100	-11.835	0.100
176.200	-15.454	0.100
176.300	-2.611	0.100
176.400	-2.889	0.100
176.500	4.775	0.100
176.600	-9.759	0.100
176.700	-1.925	0.100
176.800	-11.030	0.100
176.900	2.869	0.100
177.000	-1.575	0.100
177.100	-8.273	0.100
177.200	-7.340	0.100
177.300	-2.039	0.100
177.400	-2.699	0.100
177.500	-0.411	0.100
177.600	-6.028	0.100
177.700	-4.113	0.100
177.800	-9.692	0.100
177.900	2.882	0.100
178.000	-8.423	0.100
178.100	-10.206	0.100
178.200	-3.238	0.100
178.300	0.830	0.100
178.400	-2.127	0.100
178.500	-5.406	0.100
178.600	-0.056	0.100
178.700	-6.589	0.100
178.800	-9.721	0.100
178.900	-7.335	0.100
179.000	-6.180	0.100
179.100	-1.770	0.100
179.200	0.376	0.100
179.300	-1.937	0.100
179.400	-11.186	0.100
179.500	2.149	0.100
179.600	0.463	0.100
179.700	-2.224	0.100
179.800	1.384	0.100
179.900	2.155	0.100
180.000	5.823	0.100
180.100	-0.274	0.100
180.200	1.136	0.100
180.300	6.688	0.100
180.400	0.076	0.100
180.500	12.052	0.100
180.600	4.380	0.100
180.700	5.591	0.100
180.800	5.867	0.100
180.900	9.469	0.100
181.000	4.605	0.100
181.100	13.297	0.100
181.200	7.460	0.100
181.300	6.966	0.100
181.400	8.832	0.100
181.500	4.252	0.100
181.600	4.450	0.100
181.700	5.934	0.100
181.800	12.661	0.100
181.900	8.070	0.100
182.000	8.971	0.100
182.100	8.831	0.100
182.200	9.688	0.100
182.300	3.420	0.100
182.400	8.484	0.100
182.500	7.302	0.100
182.600	12.200	0.100
182.700	8.770	0.100
182.800	11.577	0.100
182.900	2.759	0.100
183.000	-1.324	0.100
183.100	6.773	0.100
183.200	1.385	0.100
183.300	8.929	0.100
183.400	12.118	0.100
183.500	6.384	0.100
183.600	3.353	0.100
183.700	3.014	0.100
183.800	-0.246	0.100
183.900	7.756	0.100
184.000	10.785	0.100
184.100	-1.562	0.100
184.200	-1.512	0.100
184.300	-2.072	0.100
184.400	7.377	0.100
184.500	6.963	0.100
184.600	0.530	0.100
184.700	9.453	0.100
184.800	5.966	0.100
184.900	-5.279	0.100
185.000	-3.975	0.100
185.100	0.360	0.100
185.200	4.528	0.100
185.300	3.975	0.100
185.400	2.180	0.100
185.500	-5.632	0.100
185.600	-0.788	0.100
185.700	-3.714	0.100
185.800	-1.532	0.100
185.900	4.093	0.100
186.000	3.475	0.100
186.100	-5.442	0.100
186.200	-8.162	0.100
186.300	8.453	0.100
186.400	3.350	0.100
186.500	3.711	0.100
186.600	-0.591	0.100
186.700	3.325	0.100
186.800	-6.203	0.100
186.900	3.144	0.100
187.000	6.932	0.100
187.100	7.666	0.100
187.200	6.432	0.100
187.300	8.939	0.100
187.400	8.608	0.100
187.500	9.314	0.100
187.600	3.552	0.100
187.700	8.733	0.100
187.800	6.176	0.100
187.900	2.804	0.100
188.000	5.988	0.100
188.100	-4.165	0.100
188.200	8.934	0.100
188.300	7.247	0.100
188.400	-0.529	0.100
188.500	17.121	0.100
188.600	6.025	0.100
188.700	6.913	0.100
188.800	12.622	0.100
188.900	9.909	0.100
189.000	9.648	0.100
189.100	1.077	0.100
189.200	4.979	0.100
189.300	-0.590	0.100
189.400	7.753	0.100
189.500	6.754	0.100
189.600	15.106	0.100
189.700	7.020	0.100
189.800	6.257	0.100
189.900	10.320	0.100
190.000	10.815	0.100
190.100	1.846	0.100
190.200	8.466	0.100
190.300	1.713	0.100
190.400	15.187	0.100
190.500	5.726	0.100
190.600	2.788	0.100
190.700	6.616	0.100
190.800	6.536	0.100
190.900	6.071	0.100
191.000	17.465	0.100
191.100	10.493	0.100
191.200	9.181	0.100
191.300	6.159	0.100
191.400	5.112	0.100
191.500	8.134	0.100
191.600	5.974	0.100
191.700	13.029	0.100
191.800	8.791	0.100
191.900	15.190	0.100
192.000	6.644	0.100
192.100	6.434	0.100
192.200	6.884	0.100
192.300	10.051	0.100
192.400	7.580	0.100
192.500	11.352	0.100
192.600	12.655	0.100
192.700	3.599	0.100
192.800	11.749	0.100
192.900	8.729	0.100
193.000	5.828	0.100
193.100	7.800	0.100
193.200	4.965	0.100
193.300	6.941	0.100
193.400	5.896	0.100
193.500	8.981	0.100
193.600	12.390	0.100
193.700	10.971	0.100
193.800	7.291	0.100
193.900	9.050	0.100
194.000	4.277	0.100
194.100	15.560	0.100
194.200	1.347	0.100
194.300	13.046	0.100
194.400	16.077	0.100
194.500	-0.344	0.100
194.600	3.885	0.100
194.700	5.232	0.100
194.800	15.489	0.100
194.900	10.199	0.100
195.000	8.152	0.100
195.100	3.848	0.100
195.200	10.463	0.100
195.300	3.380	0.100
195.400	11.872	0.100
195.500	5.397	0.100
195.600	0.408	0.100
195.700	6.607	0.100
195.800	9.747	0.100
195.900	7.818	0.100
196.000	6.643	0.100
196.100	10.298	0.100
196.200	-0.545	0.100
196.300	6.678	0.100
196.400	5.716	0.100
196.500	5.852	0.100
196.600	1.831	0.100
196.700	5.033	0.100
196.800	5.222	0.100
196.900	7.886	0.100
197.000	0.936	0.100
197.100	5.309	0.100
197.200	11.203	0.100
197.300	15.972	0.100
197.400	15.358	0.100
197.500	4.318	0.100
197.600	1.291	0.100
197.700	13.022	0.100
197.800	6.760	0.100
197.900	4.282	0.100
198.000	5.214	0.100
198.100	5.241	0.100
198.200	9.288	0.100
198.300	6.720	0.100
198.400	11.376	0.100
198.500	10.749	0.100
198.600	10.047	0.100
198.700	2.505	0.100
198.800	5.152	0.100
198.900	12.887	0.100
199.000	4.953	0.100
199.100	-5.018	0.100
199.200	0.999	0.100
199.300	15.302	0.100
199.400	17.018	0.100
199.500	-0.116	0.100
199.600	3.096	0.100
199.700	9.500	0.100
199.800	2.969	0.100
199.900	1.829	0.100
200.000	8.464	0.100
200.100	9.180	0.100
200.200	6.825	0.100
200.300	9.833	0.100
200.400	5.135	0.100
200.500	15.407	0.100
200.600	1.458	0.100
200.700	1.827	0.100
200.800	4.199	0.100
200.900	9.722	0.100
201.000	9.630	0.100
201.100	7.159	0.100
201.200	4.135	0.100
201.300	9.304	0.100
201.400	9.709	0.100
201.500	4.809	0.100
201.600	-5.062	0.100
201.700	6.607	0.100
201.800	18.947	0.100
201.900	5.552	0.100
202.000	7.105	0.100
202.100	4.859	0.100
202.200	0.308	0.100
202.300	-0.367	0.100
202.400	-0.111	0.100
202.500	-2.009	0.100
202.600	2.106	0.100
202.700	4.503	0.100
202.800	-2.501	0.100
202.900	13.119	0.100
203.000	9.162	0.100
203.100	5.356	0.100
203.200	-0.983	0.100
203.300	13.960	0.100
203.400	-1.467	0.100
203.500	6.603	0.100
203.600	7.419	0.100
203.700	-3.201	0.100
203.800	10.250	0.100
203.900	12.622	0.100
204.000	-5.512	0.100
204.100	11.265	0.100
204.200	15.169	0.100
204.300	-2.617	0.100
204.400	6.302	0.100
204.500	12.294	0.100
204.600	15.610	0.100
204.700	6.092	0.100
204.800	0.965	0.100
204.900	1.527	0.100
205.000	15.938	0.100
205.100	5.381	0.100
205.200	7.983	0.100
205.300	4.976	0.100
205.400	6.219	0.100
205.500	10.188	0.100
205.600	9.670	0.100
205.700	-4.130	0.100
205.800	6.185	0.100
205.900	1.691	0.100
206.000	14.907	0.100
206.100	6.992	0.100
206.200	0.946	0.100
206.300	1.002	0.100
206.400	3.971	0.100
206.500	10.125	0.100
206.600	0.475	0.100
206.700	1.046	0.100
206.800	10.152	0.100
206.900	5.486	0.100
207.000	0.624	0.100
207.100	1.405	0.100
207.200	10.797	0.100
207.300	-4.835	0.100
207.400	6.139	0.100
207.500	0.642	0.100
207.600	2.659	0.100
207.700	15.874	0.100
207.800	-0.153	0.100
207.900	-1.589	0.100
208.000	13.813	0.100
208.100	8.334	0.100
208.200	8.616	0.100
208.300	1.486	0.100
208.400	4.242	0.100
208.500	2.454	0.100
208.600	8.943	0.100
208.700	-0.986	0.100
208.800	12.696	0.100
208.900	6.108	0.100
209.000	-2.792	0.100
209.100	-1.780	0.100
209.200	5.256	0.100
209.300	4.319	0.100
209.400	5.952	0.100
209.500	9.605	0.100
209.600	3.869	0.100
209.700	6.786	0.100
209.800	3.646	0.100
209.900	8.873	0.100
210.000	-2.332	0.100
210.100	-1.770	0.100
210.200	12.236	0.100
210.300	5.203	0.100
210.400	9.579	0.100
210.500	7.929	0.100
210.600	5.144	0.100
210.700	4.272	0.100
210.800	-0.273	0.100
210.900	3.030	0.100
211.000	12.733	0.100
211.100	0.578	0.100
211.200	8.392	0.100
211.300	5.040	0.100
211.400	0.838	0.100
211.500	-0.252	0.100
211.600	9.406	0.100
211.700	4.709	0.100
211.800	4.965	0.100
211.900	-0.152	0.100
212.000	2.886	0.100
212.100	3.714	0.100
212.200	8.717	0.100
212.300	2.155	0.100
212.400	3.143	0.100
212.500	7.743	0.100
212.600	-4.559	0.100
212.700	6.272	0.100
212.800	-2.248	0.100
212.900	12.007	0.100
213.000	10.304	0.100
213.100	2.158	0.100
213.200	-0.787	0.100
213.300	4.453	0.100
213.400	5.259	0.100
213.500	4.651	0.100
213.600	9.194	0.100
213.700	2.921	0.100
213.800	-5.462	0.100
213.900	0.141	0.100
214.000	11.888	0.100
214.100	6.990	0.100
214.200	8.697	0.100
214.300	1.790	0.100
214.400	7.946	0.100
214.500	1.063	0.100
214.600	-1.917	0.100
214.700	3.480	0.100
214.800	2.644	0.100
214.900	12.963	0.100
215.000	5.400	0.100
215.100	0.219	0.100
215.200	11.758	0.100
215.300	0.125	0.100
215.400	8.943	0.100
215.500	4.609	0.100
215.600	8.277	0.100
215.700	8.733	0.100
215.800	7.819	0.100
215.900	5.126	0.100
216.000	5.624	0.100
216.100	6.251	0.100
216.200	5.178	0.100
216.300	-0.093	0.100
216.400	4.512	0.100
216.500	2.804	0.100
216.600	2.100	0.100
216.700	6.927	0.100
216.800	2.485	0.100
216.900	5.491	0.100
217.000	5.037	0.100
217.100	-1.268	0.100
217.200	-1.010	0.100
217.300	0.809	0.100
217.400	6.166	0.100
217.500	15.848	0.100
217.600	9.554	0.100
217.700	1.939	0.100
217.800	3.425	0.100
217.900	5.183	0.100
218.000	3.414	0.100
218.100	11.502	0.100
218.200	7.976	0.100
218.300	-6.311	0.100
218.400	0.657	0.100
218.500	10.273	0.100
218.600	2.872	0.100
218.700	-1.156	0.100
218.800	15.601	0.100
218.900	2.549	0.100
219.000	10.402	0.100
219.100	4.315	0.100
219.200	6.458	0.100
219.300	5.294	0.100
219.400	-3.906	0.100
219.500	-0.038	0.100
219.600	7.282	0.100
219.700	-1.748	0.100
219.800	14.261	0.100
219.900	-5.076	0.100
220.000	3.701	0.100
220.100	3.406	0.100
220.200	12.131	0.100
220.300	-4.097	0.100
220.400	-1.903	0.100
220.500	2.399	0.100
220.600	-3.336	0.100
220.700	7.038	0.100
220.800	1.993	0.100
220.900	4.180	0.100
221.000	5.368	0.100
221.100	5.409	0.100
221.200	1.745	0.100
221.300	0.336	0.100
221.400	2.213	0.100
221.500	8.933	0.100
221.600	-0.120	0.100
221.700	5.610	0.100
221.800	12.176	0.100
221.900	13.959	0.100
222.000	-5.213	0.100
222.100	8.158	0.100
222.200	0.939	0.100
222.300	6.761	0.100
222.400	-5.485	0.100
222.500	0.297	0.100
222.600	2.398	0.100
222.700	7.290	0.100
222.800	5.883	0.100
222.900	7.503	0.100
223.000	6.628	0.100
223.100	11.748	0.100
223.200	6.274	0.100
223.300	3.683	0.100
223.400	6.928	0.100
223.500	7.798	0.100
223.600	11.483	0.100
223.700	2.424	0.100
223.800	3.682	0.100
223.900	11.921	0.100
224.000	15.832	0.100
224.100	10.103	0.100
224.200	1.803	0.100
224.300	6.603	0.100
224.400	-1.837	0.100
224.500	1.758	0.100
224.600	3.633	0.100
224.700	6.413	0.100
224.800	5.998	0.100
224.900	-6.191	0.100
225.000	4.791	0.100
225.100	0.311	0.100
225.200	5.735	0.100
225.300	3.323	0.100
225.400	14.802	0.100
225.500	2.709	0.100
225.600	2.337	0.100
225.700	16.119	0.100
225.800	0.623	0.100
225.900	8.002	0.100
226.000	-6.752	0.100
226.100	5.059	0.100
226.200	12.211	0.100
226.300	-3.522	0.100
226.400	0.612	0.100
226.500	12.447	0.100
226.600	19.325	0.100
226.700	2.550	0.100
226.800	-1.286	0.100
226.900	7.401	0.100
227.000	2.529	0.100
227.100	10.557	0.100
227.200	-0.219	0.100
227.300	3.181	0.100
227.400	9.194	0.100
227.500	9.527	0.100
227.600	5.088	0.100
227.700	1.964	0.100
227.800	0.841	0.100
227.900	7.543	0.100
228.000	7.606	0.100
228.100	3.460	0.100
228.200	0.717	0.100
228.300	7.488	0.100
228.400	5.486	0.100
228.500	12.741	0.100
228.600	-7.856	0.100
228.700	-1.384	0.100
228.800	2.568	0.100
228.900	14.541	0.100
229.000	4.796	0.100
229.100	-4.457	0.100
229.200	2.130	0.100
229.300	8.780	0.100
229.400	7.397	0.100
229.500	12.217	0.100
229.600	1.164	0.100
229.700	-2.547	0.100
229.800	-3.856	0.100
229.900	3.287	0.100
230.000	6.360	0.100
230.100	4.020	0.100
230.200	7.446	0.100
230.300	7.050	0.100
230.400	9.821	0.100
230.500	3.560	0.100
230.600	1.526	0.100
230.700	0.830	0.100
230.800	5.083	0.100
230.900	7.965	0.100
231.000	9.861	0.100
231.100	1.573	0.100
231.200	3.063	0.100
231.300	12.612	0.100
231.400	1.741	0.100
231.500	9.270	0.100
231.600	9.359	0.100
231.700	5.319	0.100
231.800	3.314	0.100
231.900	3.072	0.100
232.000	-2.608	0.100
232.100	-6.598	0.100
232.200	10.753	0.100
232.300	8.352	0.100
232.400	0.073	0.100
232.500	12.141	0.100
232.600	2.543	0.100
232.700	9.005	0.100
232.800	4.531	0.100
232.900	7.067	0.100
233.000	2.493	0.100
233.100	1.699	0.100
233.200	-1.941	0.100
233.300	7.762	0.100
233.400	-0.878	0.100
233.500	10.944	0.100
233.600	2.620	0.100
233.700	-1.653	0.100
233.800	-0.586	0.100
233.900	-1.266	0.100
234.000	17.126	0.100
234.100	6.183	0.100
234.200	-1.169	0.100
234.300	7.652	0.100
234.400	-1.171	0.100
234.500	7.717	0.100
234.600	7.767	0.100
234.700	5.103	0.100
234.800	0.022	0.100
234.900	4.657	0.100
235.000	1.844	0.100
235.100	12.985	0.100
235.200	2.999	0.100
235.300	2.275	0.100
235.400	7.841	0.100
235.500	-0.144	0.100
235.600	3.397	0.100
235.700	-5.235	0.100
235.800	5.288	0.100
235.900	7.584	0.100
236.000	12.559	0.100
236.100	4.642	0.100
236.200	1.344	0.100
236.300	16.271	0.100
236.400	14.164	0.100
236.500	3.739	0.100
236.600	3.308	0.100
236.700	4.129	0.100
236.800	11.495	0.100
236.900	-0.836	0.100
237.000	9.748	0.100
237.100	2.507	0.100
237.200	8.433	0.100
237.300	3.015	0.100
237.400	-5.088	0.100
237.500	6.054	0.100
237.600	10.002	0.100
237.700	5.224	0.100
237.800	14.064	0.100
237.900	2.176	0.100
238.000	3.690	0.100
238.100	5.763	0.100
238.200	7.205	0.100
238.300	3.000	0.100
238.400	1.478	0.100
238.500	14.551	0.100
238.600	11.617	0.100
238.700	2.333	0.100
238.800	-4.478	0.100
238.900	3.902	0.100
239.000	4.767	0.100
239.100	5.696	0.100
239.200	2.638	0.100
239.300	-0.323	0.100
239.400	9.616	0.100
239.500	3.574	0.100
239.600	-6.058	0.100
239.700	6.343	0.100
239.800	2.010	0.100
239.900	-1.862	0.100
240.000	0.982	0.100
240.100	-3.094	0.100
240.200	0.501	0.100
240.300	-4.964	0.100
240.400	-7.185	0.100
240.500	-6.730	0.100
240.600	-7.183	0.100
240.700	-8.732	0.100
240.800	-7.328	0.100
240.900	-9.066	0.100
241.000	-26.392	0.100
241.100	-18.177	0.100
241.200	-9.006	0.100
241.300	-10.202	0.100
241.400	-13.518	0.100
241.500	-13.434	0.100
241.600	-23.154	0.100
241.700	-24.435	0.100
241.800	-23.894	0.100
241.900	-13.145	0.100
242.000	-14.084	0.100
242.100	-13.228	0.100
242.200	-18.634	0.100
242.300	-26.261	0.100
242.400	-15.032	0.100
242.500	-12.522	0.100
242.600	-12.576	0.100
242.700	-14.945	0.100
242.800	-15.261	0.100
242.900	-17.589	0.100
243.000	-13.516	0.100
243.100	-22.809	0.100
243.200	-19.076	0.100
243.300	-14.332	0.100
243.400	-15.336	0.100
243.500	-17.666	0.100
243.600	-8.173	0.100
243.700	-9.387	0.100
243.800	-18.566	0.100
243.900	-11.966	0.100
244.000	-8.561	0.100
244.100	-6.397	0.100
244.200	-9.931	0.100
244.300	-12.932	0.100
244.400	-19.944	0.100
244.500	-12.677	0.100
244.600	-20.368	0.100
244.700	-18.849	0.100
244.800	-2.892	0.100
244.900	-9.044	0.100
245.000	-9.459	0.100
245.100	-1.973	0.100
245.200	-13.076	0.100
245.300	-15.410	0.100
245.400	-20.164	0.100
245.500	-2.933	0.100
245.600	-2.085	0.100
245.700	-12.058	0.100
245.800	-18.760	0.100
245.900	-3.031	0.100
246.000	-18.610	0.100
246.100	-6.510	0.100
246.200	-5.443	0.100
246.300	-19.300	0.100
246.400	-9.574	0.100
246.500	-8.883	0.100
246.600	-3.564	0.100
246.700	-12.396	0.100
246.800	-6.752	0.100
246.900	-11.236	0.100
247.000	-11.682	0.100
247.100	1.356	0.100
247.200	-7.471	0.100
247.300	-16.405	0.100
247.400	-7.869	0.100
247.500	-3.595	0.100
247.600	-5.487	0.100
247.700	-5.300	0.100
247.800	-10.944	0.100
247.900	1.953	0.100
248.000	-8.033	0.100
248.100	-1.392	0.100
248.200	-9.953	0.100
248.300	-6.423	0.100
248.400	-1.541	0.100
248.500	-5.723	0.100
248.600	-4.242	0.100
248.700	-17.038	0.100
248.800	-4.744	0.100
248.900	-4.731	0.100
249.000	-3.521	0.100
249.100	-1.498	0.100
249.200	-17.558	0.100
249.300	3.337	0.100
249.400	-4.901	0.100
249.500	-16.293	0.100
249.600	-8.231	0.100
249.700	-0.138	0.100
249.800	-6.187	0.100
249.900	-8.741	0.100
250.000	-6.794	0.100
250.100	-11.625	0.100
250.200	-6.960	0.100
250.300	0.261	0.100
250.400	-7.534	0.100
250.500	-11.804	0.100
250.600	-4.719	0.100
250.700	-5.521	0.100
250.800	-12.090	0.100
250.900	-10.461	0.100
251.000	-3.302	0.100
251.100	-6.284	0.100
251.200	0.476	0.100
251.300	-5.714	0.100
251.400	0.464	0.100
251.500	-2.126	0.100
251.600	-10.948	0.100
251.700	-8.868	0.100
251.800	0.272	0.100
251.900	-5.949	0.100
252.000	-6.027	0.100
252.100	-9.904	0.100
252.200	-6.922	0.100
252.300	-1.434	0.100
252.400	-4.270	0.100
252.500	-1.893	0.100
252.600	-4.915	0.100
252.700	-12.457	0.100
252.800	-10.537	0.100
252.900	-10.440	0.100
253.000	-7.103	0.100
253.100	-4.708	0.100
253.200	-9.266	0.100
253.300	-8.766	0.100
253.400	-8.880	0.100
253.500	-0.061	0.100
253.600	-11.870	0.100
253.700	-5.682	0.100
253.800	-8.507	0.100
253.900	-2.460	0.100
254.000	-6.088	0.100
254.100	-6.651	0.100
254.200	-16.979	0.100
254.300	-4.031	0.100
254.400	-2.456	0.100
254.500	-6.803	0.100
254.600	-7.354	0.100
254.700	-6.922	0.100
254.800	-12.623	0.100
254.900	-9.951	0.100
255.000	-8.423	0.100
255.100	-14.694	0.100
255.200	3.789	0.100
255.300	4.010	0.100
255.400	-5.476	0.100
255.500	-9.685	0.100
255.600	-5.320	0.100
255.700	-8.408	0.100
255.800	-1.973	0.100
255.900	-5.016	0.100
256.000	-13.441	0.100
256.100	-10.713	0.100
256.200	-7.956	0.100
256.300	-9.003	0.100
256.400	-3.634	0.100
256.500	2.990	0.100
256.600	-15.767	0.100
256.700	-1.682	0.100
256.800	-9.157	0.100
256.900	-2.409	0.100
257.000	-13.709	0.100
257.100	-10.685	0.100
257.200	-2.635	0.100
257.300	-8.569	0.100
257.400	-6.222	0.100
257.500	-7.836	0.100
257.600	-10.476	0.100
257.700	0.073	0.100
257.800	-1.459	0.100
257.900	-10.937	0.100
258.000	-8.770	0.100
258.100	-3.435	0.100
258.200	-1.759	0.100
258.300	-3.403	0.100
258.400	-2.109	0.100
258.500	-7.076	0.100
258.600	-16.859	0.100
258.700	-13.993	0.100
258.800	-9.591	0.100
258.900	-9.250	0.100
259.000	-5.419	0.100
259.100	-14.023	0.100
259.200	-3.398	0.100
259.300	-6.504	0.100
259.400	2.686	0.100
259.500	3.480	0.100
259.600	-3.813	0.100
259.700	-7.005	0.100
259.800	-7.354	0.100
259.900	-11.821	0.100
260.000	-0.674	0.100
260.100	-1.849	0.100
260.200	-10.375	0.100
260.300	-3.213	0.100
260.400	-10.838	0.100
260.500	-6.984	0.100
260.600	-5.524	0.100
260.700	-4.001	0.100
260.800	-3.942	0.100
260.900	-6.045	0.100
261.000	-15.854	0.100
261.100	-1.544	0.100
261.200	-6.264	0.100
261.300	-4.457	0.100
261.400	-6.172	0.100
261.500	-7.808	0.100
261.600	-1.348	0.100
261.700	-2.275	0.100
261.800	-9.100	0.100
261.900	2.921	0.100
262.000	-18.400	0.100
262.100	-4.687	0.100
262.200	-5.452	0.100
262.300	0.788	0.100
262.400	-8.221	0.100
262.500	-12.281	0.100
262.600	-1.833	0.100
262.700	-20.188	0.100
262.800	-0.428	0.100
262.900	-11.921	0.100
263.000	-3.872	0.100
263.100	-2.531	0.100
263.200	-12.375	0.100
263.300	-8.135	0.100
263.400	-4.991	0.100
263.500	-6.619	0.100
263.600	-12.182	0.100
263.700	-8.198	0.100
263.800	-4.946	0.100
263.900	-12.012	0.100
264.000	-2.241	0.100
264.100	-8.633	0.100
264.200	-4.009	0.100
264.300	-9.250	0.100
264.400	-7.635	0.100
264.500	-1.398	0.100
264.600	-21.920	0.100
264.700	0.100	0.100
264.800	9.326	0.100
264.900	-2.649	0.100
265.000	-0.834	0.100
265.100	-10.065	0.100
265.200	-8.749	0.100
265.300	-2.795	0.100
265.400	-10.385	0.100
265.500	-5.063	0.100
265.600	-4.813	0.100
265.700	-12.776	0.100
265.800	-4.413	0.100
265.900	-4.976	0.100
266.000	-1.571	0.100
266.100	-7.195	0.100
266.200	-10.758	0.100
266.300	-6.104	0.100
266.400	-9.702	0.100
266.500	-4.553	0.100
266.600	-3.411	0.100
266.700	-10.931	0.100
266.800	-15.479	0.100
266.900	-13.053	0.100
267.000	-7.525	0.100
267.100	-10.005	0.100
267.200	0.369	0.100
267.300	-11.663	0.100
267.400	-10.376	0.100
267.500	-2.934	0.100
267.600	-9.343	0.100
267.700	-4.453	0.100
267.800	-6.439	0.100
267.900	-6.732	0.100
268.000	-4.964	0.100
268.100	-7.093	0.100
268.200	-9.075	0.100
268.300	-9.577	0.100
268.400	-7.526	0.100
268.500	-6.635	0.100
268.600	-8.562	0.100
268.700	-15.223	0.100
268.800	0.967	0.100
268.900	-8.071	0.100
269.000	-5.698	0.100
269.100	-9.191	0.100
269.200	-2.650	0.100
269.300	-6.951	0.100
269.400	-12.259	0.100
269.500	-9.633	0.100
269.600	-15.933	0.100
269.700	-6.293	0.100
269.800	-6.565	0.100
269.900	-4.776	0.100
270.000	-3.178	0.100
270.100	-2.048	0.100
270.200	-10.924	0.100
270.300	-8.774	0.100
270.400	-6.278	0.100
270.500	-15.151	0.100
270.600	-1.375	0.100
270.700	-8.568	0.100
270.800	-12.635	0.100
270.900	-12.076	0.100
271.000	-9.834	0.100
271.100	-19.444	0.100
271.200	3.377	0.100
271.300	-3.586	0.100
271.400	-6.179	0.100
271.500	-6.203	0.100
271.600	-7.832	0.100
271.700	-9.794	0.100
271.800	-1.203	0.100
271.900	-1.500	0.100
272.000	-0.119	0.100
272.100	-20.064	0.100
272.200	-8.261	0.100
272.300	-7.891	0.100
272.400	-12.950	0.100
272.500	3.945	0.100
272.600	-0.001	0.100
272.700	-5.494	0.100
272.800	-16.124	0.100
272.900	-5.075	0.100
273.000	-5.812	0.100
273.100	-7.102	0.100
273.200	-7.055	0.100
273.300	-3.795	0.100
273.400	-4.726	0.100
273.500	1.257	0.100
273.600	-6.909	0.100
273.700	-3.112	0.100
273.800	-5.130	0.100
273.900	-16.062	0.100
274.000	-6.849	0.100
274.100	0.080	0.100
274.200	-5.357	0.100
274.300	-4.416	0.100
274.400	2.569	0.100
274.500	-10.973	0.100
274.600	-5.675	0.100
274.700	-8.024	0.100
274.800	-6.254	0.100
274.900	-14.605	0.100
275.000	-9.935	0.100
275.100	-6.014	0.100
275.200	-7.705	0.100
275.300	-10.197	0.100
275.400	-7.718	0.100
275.500	-6.708	0.100
275.600	-3.999	0.100
275.700	-6.078	0.100
275.800	-12.569	0.100
275.900	-4.054	0.100
276.000	-13.195	0.100
276.100	-7.733	0.100
276.200	-2.104	0.100
276.300	-2.378	0.100
276.400	0.446	0.100
276.500	-5.963	0.100
276.600	-4.394	0.100
276.700	-13.852	0.100
276.800	-6.938	0.100
276.900	-10.961	0.100
277.000	-4.347	0.100
277.100	-9.553	0.100
277.200	-11.224	0.100
277.300	-0.690	0.100
277.400	-4.645	0.100
277.500	-7.355	0.100
277.600	-10.610	0.100
277.700	1.190	0.100
277.800	-11.195	0.100
277.900	-6.242	0.100
278.000	-4.120	0.100
278.100	-3.474	0.100
278.200	4.684	0.100
278.300	-14.419	0.100
278.400	-9.779	0.100
278.500	-5.442	0.100
278.600	-6.679	0.100
278.700	-0.903	0.100
278.800	-10.973	0.100
278.900	-9.889	0.100
279.000	-11.824	0.100
279.100	-1.514	0.100
279.200	-1.252	0.100
279.300	-6.801	0.100
279.400	-13.904	0.100
279.500	-11.092	0.100
279.600	-6.624	0.100
279.700	-5.705	0.100
279.800	-5.186	0.100
279.900	-12.895	0.100
280.000	-6.151	0.100
280.100	-7.880	0.100
280.200	-8.606	0.100
280.300	-9.924	0.100
280.400	-3.950	0.100
280.500	-6.254	0.100
280.600	-11.343	0.100
280.700	-3.887	0.100
280.800	-6.453	0.100
280.900	-8.899	0.100
281.000	-8.626	0.100
281.100	-8.246	0.100
281.200	-3.933	0.100
281.300	-3.428	0.100
281.400	-0.238	0.100
281.500	-5.204	0.100
281.600	-2.901	0.100
281.700	-7.882	0.100
281.800	-7.501	0.100
281.900	-7.000	0.100
282.000	-15.891	0.100
282.100	-12.403	0.100
282.200	-4.433	0.100
282.300	-7.236	0.100
282.400	-11.168	0.100
282.500	-6.101	0.100
282.600	-1.986	0.100
282.700	-2.033	0.100
282.800	-13.663	0.100
282.900	-9.070	0.100
283.000	-11.077	0.100
283.100	0.798	0.100
283.200	-4.721	0.100
283.300	0.693	0.100
283.400	-11.786	0.100
283.500	-0.591	0.100
283.600	-5.002	0.100
283.700	-8.003	0.100
283.800	-6.628	0.100
283.900	-11.828	0.100
284.000	-7.985	0.100
284.100	-11.740	0.100
284.200	7.109	0.100
284.300	-5.120	0.100
284.400	-4.429	0.100
284.500	-4.556	0.100
284.600	-0.794	0.100
284.700	-8.247	0.100
284.800	-14.774	0.100
284.900	-3.277	0.100
285.000	-9.290	0.100
285.100	-8.566	0.100
285.200	-6.326	0.100
285.300	-16.863	0.100
285.400	-0.323	0.100
285.500	-7.569	0.100
285.600	-7.570	0.100
285.700	0.571	0.100
285.800	-10.892	0.100
285.900	-11.475	0.100
286.000	-11.827	0.100
286.100	-4.472	0.100
286.200	-1.164	0.100
286.300	-7.606	0.100
286.400	-11.766	0.100
286.500	-9.383	0.100
286.600	-2.094	0.100
286.700	-9.075	0.100
286.800	-3.877	0.100
286.900	-12.052	0.100
287.000	-1.307	0.100
287.100	-0.954	0.100
287.200	-12.446	0.100
287.300	-7.083	0.100
287.400	-4.203	0.100
287.500	-6.049	0.100
287.600	-5.148	0.100
287.700	-10.882	0.100
287.800	-3.452	0.100
287.900	-9.188	0.100
288.000	-7.501	0.100
288.100	-9.159	0.100
288.200	-6.111	0.100
288.300	1.943	0.100
288.400	-6.307	0.100
288.500	-9.338	0.100
288.600	-7.679	0.100
288.700	-12.225	0.100
288.800	-9.630	0.100
288.900	1.984	0.100
289.000	-15.978	0.100
289.100	-9.995	0.100
289.200	-5.435	0.100
289.300	-14.213	0.100
289.400	-2.675	0.100
289.500	-1.033	0.100
289.600	-2.340	0.100
289.700	-12.267	0.100
289.800	-3.611	0.100
289.900	-3.772	0.100
290.000	-12.955	0.100
290.100	-8.954	0.100
290.200	-2.080	0.100
290.300	-2.623	0.100
290.400	-2.658	0.100
290.500	-5.772	0.100
290.600	-3.409	0.100
290.700	-16.894	0.100
290.800	-13.828	0.100
290.900	-10.018	0.100
291.000	-2.722	0.100
291.100	-0.037	0.100
291.200	-8.145	0.100
291.300	-2.277	0.100
291.400	-10.196	0.100
291.500	3.207	0.100
291.600	2.859	0.100
291.700	-22.022	0.100
291.800	-1.644	0.100
291.900	-8.874	0.100
292.000	-6.638	0.100
292.100	-1.485	0.100
292.200	-5.389	0.100
292.300	-8.432	0.100
292.400	-10.372	0.100
292.500	-12.112	0.100
292.600	-1.177	0.100
292.700	0.685	0.100
292.800	-3.646	0.100
292.900	-4.824	0.100
293.000	-13.137	0.100
293.100	-11.806	0.100
293.200	-0.801	0.100
293.300	-3.278	0.100
293.400	-10.576	0.100
293.500	-7.514	0.100
293.600	-2.626	0.100
293.700	-10.809	0.100
293.800	-15.959	0.100
293.900	-3.375	0.100
294.000	-0.786	0.100
294.100	-1.428	0.100
294.200	-5.935	0.100
294.300	-2.241	0.100
294.400	-5.345	0.100
294.500	-6.447	0.100
294.600	-18.085	0.100
294.700	-7.596	0.100
294.800	3.361	0.100
294.900	-2.509	0.100
295.000	-6.849	0.100
295.100	-6.921	0.100
295.200	-2.374	0.100
295.300	-13.153	0.100
295.400	0.378	0.100
295.500	-2.034	0.100
295.600	-6.738	0.100
295.700	-9.724	0.100
295.800	-5.367	0.100
295.900	-3.354	0.100
296.000	-9.816	0.100
296.100	-6.081	0.100
296.200	-8.318	0.100
296.300	-5.893	0.100
296.400	-4.599	0.100
296.500	-1.827	0.100
296.600	-4.075	0.100
296.700	-2.226	0.100
296.800	-4.097	0.100
296.900	-4.687	0.100
297.000	-20.015	0.100
297.100	4.858	0.100
297.200	-7.018	0.100
297.300	-4.586	0.100
297.400	-5.173	0.100
297.500	-2.602	0.100
297.600	-6.979	0.100
297.700	-9.365	0.100
297.800	-3.028	0.100
297.900	-11.540	0.100
298.000	-10.833	0.100
298.100	-0.505	0.100
298.200	-7.479	0.100
298.300	-8.346	0.100
298.400	-4.147	0.100
298.500	-6.460	0.100
298.600	-4.289	0.100
298.700	-9.475	0.100
298.800	-4.223	0.100
298.900	-15.286	0.100
299.000	-3.363	0.100
299.100	-6.729	0.100
299.200	-5.859	0.100
299.300	-2.625	0.100
299.400	-3.346	0.100
299.500	-3.573	0.100
299.600	-7.138	0.100
299.700	-8.277	0.100
299.800	-0.845	0.100
299.900	-7.506	0.100
300.000	-6.228	0.100
300.100	-7.792	0.100
300.200	1.683	0.100
300.300	-10.752	0.100
300.400	-7.575	0.100
300.500	-0.356	0.100
300.600	-5.846	0.100
300.700	-12.064	0.100
300.800	-0.772	0.100
300.900	-8.710	0.100
301.000	-13.420	0.100
301.100	3.554	0.100
301.200	4.211	0.100
301.300	-4.147	0.100
301.400	-6.239	0.100
301.500	-0.343	0.100
301.600	-15.398	0.100
301.700	-7.738	0.100
301.800	-11.616	0.100
301.900	-3.180	0.100
302.000	-4.803	0.100
302.100	-11.253	0.100
302.200	-7.540	0.100
302.300	-1.161	0.100
302.400	-9.474	0.100
302.500	-15.388	0.100
302.600	-3.234	0.100
302.700	-1.175	0.100
302.800	-8.286	0.100
302.900	-3.878	0.100
303.000	-9.127	0.100
303.100	-1.699	0.100
303.200	-5.446	0.100
303.300	-6.298	0.100
303.400	-3.257	0.100
303.500	-5.968	0.100
303.600	-7.138	0.100
303.700	-9.135	0.100
303.800	-3.923	0.100
303.900	-1.602	0.100
304.000	-10.074	0.100
304.100	-4.377	0.100
304.200	-10.047	0.100
304.300	-10.593	0.100
304.400	-7.812	0.100
304.500	3.802	0.100
304.600	2.814	0.100
304.700	-0.091	0.100
304.800	-4.903	0.100
304.900	0.118	0.100
305.000	-1.383	0.100
305.100	-3.016	0.100
305.200	-7.507	0.100
305.300	-14.727	0.100
305.400	0.419	0.100
305.500	-6.727	0.100
305.600	-7.559	0.100
305.700	-0.944	0.100
305.800	0.042	0.100
305.900	-4.894	0.100
306.000	0.599	0.100
306.100	-14.957	0.100
306.200	-0.853	0.100
306.300	-7.428	0.100
306.400	-4.654	0.100
306.500	-1.818	0.100
306.600	-3.930	0.100
306.700	-1.108	0.100
306.800	-6.548	0.100
306.900	-18.463	0.100
307.000	-2.282	0.100
307.100	-4.718	0.100
307.200	-8.621	0.100
307.300	-11.263	0.100
307.400	-11.065	0.100
307.500	7.548	0.100
307.600	-5.180	0.100
307.700	-12.642	0.100
307.800	-4.193	0.100
307.900	-6.759	0.100
308.000	1.053	0.100
308.100	2.520	0.100
308.200	-10.439	0.100
308.300	-0.253	0.100
308.400	-5.444	0.100
308.500	-12.819	0.100
308.600	2.489	0.100
308.700	-7.701	0.100
308.800	-11.890	0.100
308.900	-0.921	0.100
309.000	-7.645	0.100
309.100	-8.793	0.100
309.200	-7.970	0.100
309.300	-2.608	0.100
309.400	-4.218	0.100
309.500	-2.975	0.100
309.600	-7.126	0.100
309.700	2.418	0.100
309.800	-8.711	0.100
309.900	-7.644	0.100
310.000	-5.104	0.100
310.100	-1.787	0.100
310.200	-1.517	0.100
310.300	-2.262	0.100
310.400	-9.277	0.100
310.500	-0.423	0.100
310.600	-2.443	0.100
310.700	-3.474	0.100
310.800	-7.191	0.100
310.900	-1.933	0.100
311.000	-5.534	0.100
311.100	-5.482	0.100
311.200	-4.234	0.100
311.300	-13.949	0.100
311.400	0.620	0.100
311.500	-1.699	0.100
311.600	-2.488	0.100
311.700	-3.149	0.100
311.800	-7.992	0.100
311.900	-10.758	0.100
312.000	-6.077	0.100
312.100	-2.651	0.100
312.200	-1.293	0.100
312.300	-8.957	0.100
312.400	0.747	0.100
312.500	-4.750	0.100
312.600	-3.604	0.100
312.700	-5.130	0.100
312.800	-0.855	0.100
312.900	-7.062	0.100
313.000	-12.004	0.100
313.100	3.352	0.100
313.200	-3.319	0.100
313.300	-19.515	0.100
313.400	0.389	0.100
313.500	-2.123	0.100
313.600	-6.792	0.100
313.700	-6.616	0.100
313.800	-17.247	0.100
313.900	-10.314	0.100
314.000	-1.952	0.100
314.100	-5.073	0.100
314.200	-4.970	0.100
314.300	-5.431	0.100
314.400	-2.447	0.100
314.500	0.026	0.100
314.600	-0.831	0.100
314.700	-7.585	0.100
314.800	-5.653	0.100
314.900	-10.995	0.100
315.000	-2.076	0.100
315.100	-1.064	0.100
315.200	-5.801	0.100
315.300	3.613	0.100
315.400	-2.153	0.100
315.500	-14.461	0.100
315.600	1.237	0.100
315.700	-7.467	0.100
315.800	-14.633	0.100
315.900	-5.264	0.100
316.000	-0.446	0.100
316.100	0.177	0.100
316.200	-8.242	0.100
316.300	2.137	0.100
316.400	-5.001	0.100
316.500	-10.774	0.100
316.600	-6.218	0.100
316.700	-0.407	0.100
316.800	-13.474	0.100
316.900	3.250	0.100
317.000	2.116	0.100
317.100	-1.346	0.100
317.200	-1.619	0.100
317.300	-8.177	0.100
317.400	-6.481	0.100
317.500	-5.935	0.100
317.600	-15.243	0.100
317.700	-2.273	0.100
317.800	4.988	0.100
317.900	-7.883	0.100
318.000	-9.613	0.100
318.100	-13.450	0.100
318.200	-7.613	0.100
318.300	-4.561	0.100
318.400	-3.419	0.100
318.500	0.715	0.100
318.600	-9.803	0.100
318.700	-17.571	0.100
318.800	-3.800	0.100
318.900	-5.501	0.100
319.000	-2.337	0.100
319.100	-4.359	0.100
319.200	-6.963	0.100
319.300	-4.801	0.100
319.400	-5.512	0.100
319.500	-10.013	0.100
319.600	-6.462	0.100
319.700	-14.702	0.100
319.800	-3.510	0.100
319.900	1.592	0.100
320.000	-11.086	0.100
320.100	-9.794	0.100
320.200	-0.124	0.100
320.300	-4.378	0.100
320.400	-10.559	0.100
320.500	-1.808	0.100
320.600	-1.479	0.100
320.700	-13.951	0.100
320.800	-1.917	0.100
320.900	-1.269	0.100
321.000	2.212	0.100
321.100	1.262	0.100
321.200	-7.236	0.100
321.300	-10.783	0.100
321.400	-13.985	0.100
321.500	-8.409	0.100
321.600	-2.466	0.100
321.700	2.223	0.100
321.800	-1.272	0.100
321.900	-6.231	0.100
322.000	-7.065	0.100
322.100	-12.061	0.100
322.200	-12.372	0.100
322.300	2.232	0.100
322.400	1.705	0.100
322.500	-8.949	0.100
322.600	-9.098	0.100
322.700	-18.482	0.100
322.800	-2.236	0.100
322.900	-9.953	0.100
323.000	6.502	0.100
323.100	-0.164	0.100
323.200	-3.578	0.100
323.300	0.730	0.100
323.400	-2.147	0.100
323.500	-9.573	0.100
323.600	-11.247	0.100
323.700	1.715	0.100
323.800	-7.371	0.100
323.900	-5.626	0.100
324.000	-6.638	0.100
324.100	-4.807	0.100
324.200	-2.860	0.100
324.300	-11.410	0.100
324.400	-11.432	0.100
324.500	-5.523	0.100
324.600	0.254	0.100
324.700	-8.969	0.100
324.800	4.849	0.100
324.900	-7.269	0.100
325.000	-7.990	0.100
325.100	-1.377	0.100
325.200	-6.577	0.100
325.300	-1.347	0.100
325.400	-3.385	0.100
325.500	1.946	0.100
325.600	-5.040	0.100
325.700	-13.089	0.100
325.800	-2.112	0.100
325.900	-0.730	0.100
326.000	-3.116	0.100
326.100	-3.262	0.100
326.200	-10.731	0.100
326.300	0.552	0.100
326.400	-5.753	0.100
326.500	-3.254	0.100
326.600	-3.619	0.100
326.700	-7.498	0.100
326.800	-5.797	0.100
326.900	1.836	0.100
327.000	-6.615	0.100
327.100	-3.785	0.100
327.200	-8.070	0.100
327.300	-0.622	0.100
327.400	-10.180	0.100
327.500	-12.993	0.100
327.600	-5.073	0.100
327.700	-7.424	0.100
327.800	-7.582	0.100
327.900	-2.647	0.100
328.000	3.950	0.100
328.100	-3.742	0.100
328.200	0.814	0.100
328.300	-13.666	0.100
328.400	-2.157	0.100
328.500	-6.990	0.100
328.600	1.669	0.100
328.700	-4.981	0.100
328.800	-3.936	0.100
328.900	-6.698	0.100
329.000	-7.723	0.100
329.100	-2.784	0.100
329.200	-3.159	0.100
329.300	-3.556	0.100
329.400	-4.843	0.100
329.500	-10.468	0.100
329.600	-8.551	0.100
329.700	-3.490	0.100
329.800	-4.972	0.100
329.900	3.294	0.100
330.000	4.226	0.100
330.100	1.461	0.100
330.200	5.938	0.100
330.300	3.197	0.100
330.400	4.574	0.100
330.500	10.872	0.100
330.600	11.801	0.100
330.700	8.432	0.100
330.800	12.094	0.100
330.900	4.920	0.100
331.000	12.182	0.100
331.100	15.031	0.100
331.200	13.782	0.100
331.300	3.118	0.100
331.400	12.140	0.100
331.500	15.061	0.100
331.600	7.877	0.100
331.700	-6.405	0.100
331.800	-5.502	0.100
331.900	0.474	0.100
332.000	12.100	0.100
332.100	8.142	0.100
332.200	0.033	0.100
332.300	16.364	0.100
332.400	9.413	0.100
332.500	4.583	0.100
332.600	1.265	0.100
332.700	4.362	0.100
332.800	6.095	0.100
332.900	6.110	0.100
333.000	13.384	0.100
333.100	2.640	0.100
333.200	-3.298	0.100
333.300	7.065	0.100
333.400	19.091	0.100
333.500	0.437	0.100
333.600	4.068	0.100
333.700	7.209	0.100
333.800	-0.973	0.100
333.900	2.552	0.100
334.000	4.573	0.100
334.100	3.785	0.100
334.200	4.578	0.100
334.300	-3.280	0.100
334.400	1.596	0.100
334.500	9.028	0.100
334.600	2.307	0.100
334.700	7.395	0.100
334.800	3.821	0.100
334.900	-1.624	0.100
335.000	-7.041	0.100
335.100	-5.449	0.100
335.200	2.481	0.100
335.300	5.279	0.100
335.400	6.073	0.100
335.500	6.292	0.100
335.600	-7.147	0.100
335.700	-2.586	0.100
335.800	-2.017	0.100
335.900	-1.922	0.100
336.000	9.715	0.100
336.100	4.799	0.100
336.200	1.564	0.100
336.300	1.674	0.100
336.400	9.659	0.100
336.500	2.439	0.100
336.600	7.491	0.100
336.700	0.418	0.100
336.800	7.875	0.100
336.900	5.968	0.100
337.000	-2.385	0.100
337.100	9.809	0.100
337.200	10.835	0.100
337.300	5.870	0.100
337.400	0.889	0.100
337.500	-4.333	0.100
337.600	5.738	0.100
337.700	3.176	0.100
337.800	13.631	0.100
337.900	8.503	0.100
338.000	-1.340	0.100
338.100	4.963	0.100
338.200	2.591	0.100
338.300	12.650	0.100
338.400	5.311	0.100
338.500	4.630	0.100
338.600	10.767	0.100
338.700	11.139	0.100
338.800	5.337	0.100
338.900	4.065	0.100
339.000	3.634	0.100
339.100	-6.622	0.100
339.200	8.703	0.100
339.300	4.966	0.100
339.400	15.838	0.100
339.500	2.094	0.100
339.600	0.208	0.100
339.700	1.380	0.100
339.800	20.585	0.100
339.900	8.407	0.100
340.000	13.359	0.100
340.100	-1.337	0.100
340.200	-4.224	0.100
340.300	11.201	0.100
340.400	2.535	0.100
340.500	12.480	0.100
340.600	5.802	0.100
340.700	3.480	0.100
340.800	9.985	0.100
340.900	15.585	0.100
341.000	7.433	0.100
341.100	6.784	0.100
341.200	9.083	0.100
341.300	0.395	0.100
341.400	6.867	0.100
341.500	2.214	0.100
341.600	3.487	0.100
341.700	14.117	0.100
341.800	8.633	0.100
341.900	7.226	0.100
342.000	9.936	0.100
342.100	15.760	0.100
342.200	15.784	0.100
342.300	3.607	0.100
342.400	4.179	0.100
342.500	9.397	0.100
342.600	3.834	0.100
342.700	12.586	0.100
342.800	5.151	0.100
342.900	8.531	0.100
343.000	2.506	0.100
343.100	6.152	0.100
343.200	11.259	0.100
343.300	3.170	0.100
343.400	6.937	0.100
343.500	14.150	0.100
343.600	7.123	0.100
343.700	2.094	0.100
343.800	19.574	0.100
343.900	11.059	0.100
344.000	4.844	0.100
344.100	5.763	0.100
344.200	9.722	0.100
344.300	23.296	0.100
344.400	13.884	0.100
344.500	6.109	0.100
344.600	5.218	0.100
344.700	7.730	0.100
344.800	11.442	0.100
344.900	8.347	0.100
345.000	13.619	0.100
345.100	2.162	0.100
345.200	-3.263	0.100
345.300	11.886	0.100
345.400	20.506	0.100
345.500	4.911	0.100
345.600	7.537	0.100
345.700	5.354	0.100
345.800	11.111	0.100
345.900	8.656	0.100
346.000	7.860	0.100
346.100	7.677	0.100
346.200	14.445	0.100
346.300	8.834	0.100
346.400	12.094	0.100
346.500	7.768	0.100
346.600	8.376	0.100
346.700	6.187	0.100
346.800	12.705	0.100
346.900	13.833	0.100
347.000	5.159	0.100
347.100	17.850	0.100
347.200	7.112	0.100
347.300	5.959	0.100
347.400	5.257	0.100
347.500	4.266	0.100
347.600	13.765	0.100
347.700	5.988	0.100
347.800	6.959	0.100
347.900	10.257	0.100
348.000	9.405	0.100
348.100	14.365	0.100
348.200	12.730	0.100
348.300	7.575	0.100
348.400	3.893	0.100
348.500	10.176	0.100
348.600	5.830	0.100
348.700	0.672	0.100
348.800	12.674	0.100
348.900	4.950	0.100
349.000	10.843	0.100
349.100	3.597	0.100
349.200	8.124	0.100
349.300	9.610	0.100
349.400	15.230	0.100
349.500	4.085	0.100
349.600	6.613	0.100
349.700	5.651	0.100
349.800	15.328	0.100
349.900	7.037	0.100
350.000	5.403	0.100
350.100	7.977	0.100
350.200	1.190	0.100
350.300	15.417	0.100
350.400	5.383	0.100
350.500	12.057	0.100
350.600	10.516	0.100
350.700	8.808	0.100
350.800	6.711	0.100
350.900	9.613	0.100
351.000	5.933	0.100
351.100	-3.407	0.100
351.200	12.610	0.100
351.300	13.740	0.100
351.400	10.437	0.100
351.500	14.823	0.100
351.600	9.843	0.100
351.700	3.278	0.100
351.800	9.186	0.100
351.900	9.886	0.100
352.000	7.963	0.100
352.100	1.814	0.100
352.200	11.424	0.100
352.300	4.578	0.100
352.400	15.158	0.100
352.500	12.364	0.100
352.600	15.557	0.100
352.700	6.258	0.100
352.800	8.027	0.100
352.900	10.481	0.100
353.000	3.186	0.100
353.100	0.476	0.100
353.200	3.907	0.100
353.300	12.389	0.100
353.400	8.416	0.100
353.500	4.922	0.100
353.600	3.143	0.100
353.700	4.164	0.100
353.800	2.838	0.100
353.900	5.122	0.100
354.000	-4.644	0.100
354.100	12.604	0.100
354.200	13.342	0.100
354.300	4.582	0.100
354.400	9.774	0.100
354.500	3.107	0.100
354.600	6.079	0.100
354.700	6.593	0.100
354.800	5.608	0.100
354.900	2.633	0.100
355.000	8.292	0.100
355.100	14.514	0.100
355.200	6.802	0.100
355.300	11.119	0.100
355.400	5.495	0.100
355.500	9.999	0.100
355.600	10.928	0.100
355.700	11.900	0.100
355.800	5.750	0.100
355.900	1.492	0.100
356.000	9.628	0.100
356.100	9.745	0.100
356.200	13.988	0.100
356.300	8.616	0.100
356.400	8.064	0.100
356.500	5.783	0.100
356.600	7.238	0.100
356.700	0.339	0.100
356.800	7.107	0.100
356.900	10.942	0.100
357.000	10.763	0.100
357.100	15.290	0.100
357.200	4.149	0.100
357.300	2.831	0.100
357.400	0.741	0.100
357.500	6.060	0.100
357.600	8.492	0.100
357.700	2.768	0.100
357.800	13.160	0.100
357.900	2.030	0.100
358.000	12.475	0.100
358.100	8.530	0.100
358.200	1.528	0.100
358.300	9.025	0.100
358.400	6.875	0.100
358.500	5.120	0.100
358.600	0.628	0.100
358.700	13.068	0.100
358.800	17.080	0.100
358.900	-1.263	0.100
359.000	4.166	0.100
359.100	6.210	0.100
359.200	13.388	0.100
359.300	5.126	0.100
359.400	3.530	0.100
359.500	3.137	0.100
359.600	5.732	0.100
359.700	5.508	0.100
359.800	3.719	0.100
359.900	5.076	0.100
360.000	9.761	0.100
360.100	6.009	0.100
360.200	1.643	0.100
360.300	6.861	0.100
360.400	14.760	0.100
360.500	10.337	0.100
360.600	7.421	0.100
360.700	8.136	0.100
360.800	1.798	0.100
360.900	0.933	0.100
361.000	8.623	0.100
361.100	6.141	0.100
361.200	5.237	0.100
361.300	1.329	0.100
361.400	6.183	0.100
361.500	12.725	0.100
361.600	0.754	0.100
361.700	9.621	0.100
361.800	17.898	0.100
361.900	5.703	0.100
362.000	2.032	0.100
362.100	1.756	0.100
362.200	10.141	0.100
362.300	15.303	0.100
362.400	11.634	0.100
362.500	3.780	0.100
362.600	13.240	0.100
362.700	1.016	0.100
362.800	3.766	0.100
362.900	3.042	0.100
363.000	3.179	0.100
363.100	15.239	0.100
363.200	19.860	0.100
363.300	2.225	0.100
363.400	0.627	0.100
363.500	-0.982	0.100
363.600	9.115	0.100
363.700	10.344	0.100
363.800	10.768	0.100
363.900	4.841	0.100
364.000	5.122	0.100
364.100	2.338	0.100
364.200	5.802	0.100
364.300	16.661	0.100
364.400	8.202	0.100
364.500	4.153	0.100
364.600	9.886	0.100
364.700	7.418	0.100
364.800	4.927	0.100
364.900	3.096	0.100
365.000	12.217	0.100
365.100	11.398	0.100
365.200	10.035	0.100
365.300	6.677	0.100
365.400	3.163	0.100
365.500	4.224	0.100
365.600	2.121	0.100
365.700	12.618	0.100
365.800	14.751	0.100
365.900	12.623	0.100
366.000	-0.458	0.100
366.100	8.444	0.100
366.200	12.151	0.100
366.300	3.806	0.100
366.400	13.940	0.100
366.500	7.243	0.100
366.600	4.827	0.100
366.700	1.250	0.100
366.800	-2.610	0.100
366.900	11.299	0.100
367.000	9.184	0.100
367.100	5.603	0.100
367.200	13.524	0.100
367.300	-2.895	0.100
367.400	4.676	0.100
367.500	8.727	0.100
367.600	8.397	0.100
367.700	11.185	0.100
367.800	7.603	0.100
367.900	12.844	0.100
368.000	-0.492	0.100
368.100	8.129	0.100
368.200	8.909	0.100
368.300	4.247	0.100
368.400	3.778	0.100
368.500	-1.007	0.100
368.600	16.515	0.100
368.700	13.085	0.100
368.800	12.615	0.100
368.900	-0.756	0.100
369.000	5.701	0.100
369.100	5.663	0.100
369.200	9.230	0.100
369.300	7.637	0.100
369.400	4.029	0.100
369.500	11.155	0.100
369.600	13.153	0.100
369.700	6.717	0.100
369.800	15.334	0.100
369.900	15.255	0.100
370.000	1.651	0.100
370.100	6.720	0.100
370.200	9.243	0.100
370.300	7.293	0.100
370.400	15.514	0.100
370.500	9.033	0.100
370.600	1.852	0.100
370.700	6.080	0.100
370.800	6.247	0.100
370.900	13.450	0.100
371.000	3.890	0.100
371.100	2.864	0.100
371.200	0.585	0.100
371.300	-2.134	0.100
371.400	7.774	0.100
371.500	8.117	0.100
371.600	9.008	0.100
371.700	16.188	0.100
371.800	10.390	0.100
371.900	2.163	0.100
372.000	2.372	0.100
372.100	1.220	0.100
372.200	1.311	0.100
372.300	7.684	0.100
372.400	7.969	0.100
372.500	1.739	0.100
372.600	11.876	0.100
372.700	5.748	0.100
372.800	2.489	0.100
372.900	12.858	0.100
373.000	2.009	0.100
373.100	3.739	0.100
373.200	1.501	0.100
373.300	10.128	0.100
373.400	13.694	0.100
373.500	6.004	0.100
373.600	8.934	0.100
373.700	13.318	0.100
373.800	11.154	0.100
373.900	10.593	0.100
374.000	9.778	0.100
374.100	3.926	0.100
374.200	-1.600	0.100
374.300	13.361	0.100
374.400	15.822	0.100
374.500	4.611	0.100
374.600	4.346	0.100
374.700	3.499	0.100
374.800	1.323	0.100
374.900	15.119	0.100
375.000	13.125	0.100
375.100	7.597	0.100
375.200	4.421	0.100
375.300	14.904	0.100
375.400	3.519	0.100
375.500	11.554	0.100
375.600	-1.541	0.100
375.700	17.760	0.100
375.800	13.372	0.100
375.900	7.415	0.100
376.000	-0.353	0.100
376.100	9.789	0.100
376.200	6.920	0.100
376.300	-2.976	0.100
376.400	16.431	0.100
376.500	6.274	0.100
376.600	5.127	0.100
376.700	3.029	0.100
376.800	2.745	0.100
376.900	9.145	0.100
377.000	12.551	0.100
377.100	7.583	0.100
377.200	8.932	0.100
377.300	0.391	0.100
377.400	7.412	0.100
377.500	8.719	0.100
377.600	11.392	0.100
377.700	10.441	0.100
377.800	8.250	0.100
377.900	11.428	0.100
378.000	0.637	0.100
378.100	9.661	0.100
378.200	2.526	0.100
378.300	5.629	0.100
378.400	-1.278	0.100
378.500	2.865	0.100
378.600	11.630	0.100
378.700	7.854	0.100
378.800	18.047	0.100
378.900	9.894	0.100
379.000	9.258	0.100
379.100	6.643	0.100
379.200	3.922	0.100
379.300	1.855	0.100
379.400	19.250	0.100
379.500	4.649	0.100
379.600	4.894	0.100
379.700	2.904	0.100
379.800	14.545	0.100
379.900	9.063	0.100
380.000	5.669	0.100
380.100	9.485	0.100
380.200	20.246	0.100
380.300	10.282	0.100
380.400	2.728	0.100
380.500	12.567	0.100
380.600	12.021	0.100
380.700	9.940	0.100
380.800	11.869	0.100
380.900	0.789	0.100
381.000	0.864	0.100
381.100	13.629	0.100
381.200	9.896	0.100
381.300	13.700	0.100
381.400	-2.605	0.100
381.500	7.741	0.100
381.600	3.181	0.100
381.700	5.575	0.100
381.800	6.192	0.100
381.900	12.589	0.100
382.000	8.381	0.100
382.100	7.303	0.100
382.200	-0.255	0.100
382.300	9.786	0.100
382.400	3.626	0.100
382.500	15.032	0.100
382.600	9.808	0.100
382.700	10.034	0.100
382.800	7.593	0.100
382.900	-2.157	0.100
383.000	3.879	0.100
383.100	15.380	0.100
383.200	9.759	0.100
383.300	4.693	0.100
383.400	11.105	0.100
383.500	2.449	0.100
383.600	9.513	0.100
383.700	4.103	0.100
383.800	18.192	0.100
383.900	10.340	0.100
384.000	-1.244	0.100
384.100	8.788	0.100
384.200	8.338	0.100
384.300	-0.592	0.100
384.400	7.522	0.100
384.500	1.542	0.100
384.600	13.320	0.100
384.700	8.190	0.100
384.800	7.860	0.100
384.900	10.622	0.100
385.000	10.258	0.100
385.100	6.316	0.100
385.200	4.065	0.100
385.300	10.757	0.100
385.400	11.234	0.100
385.500	2.866	0.100
385.600	7.639	0.100
385.700	0.696	0.100
385.800	6.344	0.100
385.900	4.603	0.100
386.000	2.328	0.100
386.100	13.490	0.100
386.200	4.795	0.100
386.300	-0.682	0.100
386.400	13.134	0.100
386.500	1.496	0.100
386.600	6.703	0.100
386.700	2.880	0.100
386.800	7.336	0.100
386.900	7.458	0.100
387.000	12.618	0.100
387.100	10.116	0.100
387.200	11.922	0.100
387.300	4.515	0.100
387.400	1.990	0.100
387.500	10.689	0.100
387.600	6.321	0.100
387.700	2.137	0.100
387.800	12.346	0.100
387.900	8.728	0.100
388.000	7.136	0.100
388.100	11.084	0.100
388.200	1.853	0.100
388.300	17.592	0.100
388.400	9.584	0.100
388.500	3.516	0.100
388.600	0.802	0.100
388.700	11.184	0.100
388.800	3.391	0.100
388.900	9.112	0.100
389.000	10.339	0.100
389.100	14.302	0.100
389.200	13.057	0.100
389.300	7.795	0.100
389.400	12.791	0.100
389.500	3.926	0.100
389.600	-1.651	0.100
389.700	4.856	0.100
389.800	12.148	0.100
389.900	6.306	0.100
390.000	-6.511	0.100
390.100	-2.854	0.100
390.200	2.914	0.100
390.300	-0.030	0.100
390.400	-13.227	0.100
390.500	-6.643	0.100
390.600	-6.218	0.100
390.700	-12.004	0.100
390.800	-8.505	0.100
390.900	-10.400	0.100
391.000	-16.592	0.100
391.100	-6.820	0.100
391.200	-10.923	0.100
391.300	-11.129	0.100
391.400	-18.480	0.100
391.500	-12.404	0.100
391.600	-20.641	0.100
391.700	-21.822	0.100
391.800	-7.844	0.100
391.900	-13.917	0.100
392.000	-19.032	0.100
392.100	-11.119	0.100
392.200	-24.056	0.100
392.300	-12.006	0.100
392.400	-16.293	0.100
392.500	-13.809	0.100
392.600	-17.599	0.100
392.700	-14.493	0.100
392.800	-9.630	0.100
392.900	-16.627	0.100
393.000	-9.643	0.100
393.100	-15.052	0.100
393.200	-14.166	0.100
393.300	-15.518	0.100
393.400	-12.199	0.100
393.500	-14.795	0.100
393.600	-5.948	0.100
393.700	-11.871	0.100
393.800	-12.849	0.100
393.900	-10.547	0.100
394.000	-16.858	0.100
394.100	-0.184	0.100
394.200	-17.720	0.100
394.300	-16.212	0.100
394.400	-10.853	0.100
394.500	-0.024	0.100
394.600	-8.966	0.100
394.700	-12.407	0.100
394.800	-0.804	0.100
394.900	-16.775	0.100
395.000	-10.368	0.100
395.100	-3.399	0.100
395.200	-6.932	0.100
395.300	-10.880	0.100
395.400	-8.152	0.100
395.500	-11.711	0.100
395.600	-4.086	0.100
395.700	-14.988	0.100
395.800	-22.018	0.100
395.900	-8.486	0.100
396.000	0.172	0.100
396.100	-8.139	0.100
396.200	-9.274	0.100
396.300	-13.635	0.100
396.400	-12.593	0.100
396.500	0.829	0.100
396.600	-4.212	0.100
396.700	-5.816	0.100
396.800	-6.136	0.100
396.900	-11.317	0.100
397.000	-6.165	0.100
397.100	-12.789	0.100
397.200	-0.862	0.100
397.300	-5.750	0.100
397.400	-8.379	0.100
397.500	-5.598	0.100
397.600	-8.806	0.100
397.700	-1.907	0.100
397.800	-5.898	0.100
397.900	-7.275	0.100
398.000	-13.477	0.100
398.100	0.250	0.100
398.200	-6.663	0.100
398.300	-15.055	0.100
398.400	-7.183	0.100
398.500	-3.119	0.100
398.600	-8.576	0.100
398.700	2.142	0.100
398.800	-1.200	0.100
398.900	-9.208	0.100
399.000	-16.269	0.100
399.100	-9.765	0.100
399.200	-5.070	0.100
399.300	-1.292	0.100
399.400	1.868	0.100
399.500	-8.730	0.100
399.600	-15.946	0.100
399.700	-2.605	0.100
399.800	0.707	0.100
399.900	-6.141	0.100
400.000	-7.151	0.100
400.100	-7.035	0.100
400.200	-5.127	0.100
400.300	-6.146	0.100
400.400	-5.889	0.100
400.500	-2.936	0.100
400.600	-8.725	0.100
400.700	-6.676	0.100
400.800	-11.361	0.100
400.900	-10.424	0.100
401.000	-3.363	0.100
401.100	-10.888	0.100
401.200	-10.501	0.100
401.300	-3.552	0.100
401.400	-8.615	0.100
401.500	-11.456	0.100
401.600	-7.752	0.100
401.700	-12.553	0.100
401.800	-4.962	0.100
401.900	-9.584	0.100
402.000	-15.392	0.100
402.100	4.900	0.100
402.200	0.069	0.100
402.300	-5.040	0.100
402.400	-14.751	0.100
402.500	-3.124	0.100
402.600	-0.463	0.100
402.700	-8.930	0.100
402.800	-5.705	0.100
402.900	-7.152	0.100
403.000	0.215	0.100
403.100	-6.198	0.100
403.200	-4.044	0.100
403.300	2.060	0.100
403.400	-9.236	0.100
403.500	-10.052	0.100
403.600	-5.253	0.100
403.700	-7.384	0.100
403.800	-6.191	0.100
403.900	-7.671	0.100
404.000	-13.074	0.100
404.100	-1.390	0.100
404.200	-5.757	0.100
404.300	-15.702	0.100
404.400	-4.383	0.100
404.500	-6.754	0.100
404.600	-9.986	0.100
404.700	-3.705	0.100
404.800	-16.928	0.100
404.900	-2.449	0.100
405.000	-19.148	0.100
405.100	-3.010	0.100
405.200	-3.151	0.100
405.300	-0.671	0.100
405.400	-9.955	0.100
405.500	-11.806	0.100
405.600	-17.905	0.100
405.700	-6.770	0.100
405.800	-1.815	0.100
405.900	1.726	0.100
406.000	-12.327	0.100
406.100	-11.693	0.100
406.200	-5.310	0.100
406.300	5.405	0.100
406.400	-10.690	0.100
406.500	-2.358	0.100
406.600	-4.359	0.100
406.700	-1.940	0.100
406.800	-2.316	0.100
406.900	-11.838	0.100
407.000	0.171	0.100
407.100	-6.316	0.100
407.200	-1.904	0.100
407.300	1.230	0.100
407.400	-9.475	0.100
407.500	-3.297	0.100
407.600	-7.770	0.100
407.700	-7.825	0.100
407.800	-3.051	0.100
407.900	-0.333	0.100
408.000	-12.692	0.100
408.100	-0.469	0.100
408.200	-11.973	0.100
408.300	-2.778	0.100
408.400	1.024	0.100
408.500	-14.238	0.100
408.600	-11.561	0.100
408.700	-4.971	0.100
408.800	-6.361	0.100
408.900	-7.307	0.100
409.000	-10.886	0.100
409.100	-2.000	0.100
409.200	-3.883	0.100
409.300	3.634	0.100
409.400	-7.657	0.100
409.500	-11.395	0.100
409.600	-4.750	0.100
409.700	-3.081	0.100
409.800	-4.861	0.100
409.900	-10.756	0.100
410.000	-8.423	0.100
410.100	-3.283	0.100
410.200	-7.535	0.100
410.300	-11.889	0.100
410.400	-6.194	0.100
410.500	0.423	0.100
410.600	-9.593	0.100
410.700	-3.512	0.100
410.800	-2.546	0.100
410.900	-4.133	0.100
411.000	-7.267	0.100
411.100	-6.266	0.100
411.200	-7.420	0.100
411.300	-7.128	0.100
411.400	-9.297	0.100
411.500	-4.017	0.100
411.600	-8.999	0.100
411.700	-14.084	0.100
411.800	-6.243	0.100
411.900	-2.855	0.100
412.000	-1.354	0.100
412.100	-2.177	0.100
412.200	-7.138	0.100
412.300	-9.503	0.100
412.400	-3.052	0.100
412.500	-17.483	0.100
412.600	-2.634	0.100
412.700	-10.893	0.100
412.800	1.084	0.100
412.900	-5.962	0.100
413.000	-16.160	0.100
413.100	0.646	0.100
413.200	-0.290	0.100
413.300	-8.585	0.100
413.400	-5.037	0.100
413.500	-7.717	0.100
413.600	-1.519	0.100
413.700	-9.202	0.100
413.800	-12.990	0.100
413.900	-3.191	0.100
414.000	-7.200	0.100
414.100	-5.505	0.100
414.200	-3.498	0.100
414.300	-13.429	0.100
414.400	-7.864	0.100
414.500	-8.557	0.100
414.600	2.405	0.100
414.700	-2.953	0.100
414.800	-13.073	0.100
414.900	-8.896	0.100
415.000	-3.331	0.100
415.100	-9.370	0.100
415.200	-11.161	0.100
415.300	-9.270	0.100
415.400	-0.744	0.100
415.500	-2.153	0.100
415.600	-8.171	0.100
415.700	-5.718	0.100
415.800	-0.792	0.100
415.900	-3.011	0.100
416.000	-8.895	0.100
416.100	-11.211	0.100
416.200	-7.941	0.100
416.300	-1.568	0.100
416.400	-12.365	0.100
416.500	-4.483	0.100
416.600	-3.946	0.100
416.700	-9.907	0.100
416.800	-9.696	0.100
416.900	1.220	0.100
417.000	-0.967	0.100
417.100	-7.166	0.100
417.200	-4.427	0.100
417.300	-5.625	0.100
417.400	-4.730	0.100
417.500	-5.415	0.100
417.600	-12.955	0.100
417.700	-6.818	0.100
417.800	-3.402	0.100
417.900	-6.526	0.100
418.000	-9.617	0.100
418.100	-3.643	0.100
418.200	-1.293	0.100
418.300	-8.684	0.100
418.400	-17.019	0.100
418.500	0.209	0.100
418.600	-4.557	0.100
418.700	-4.455	0.100
418.800	-2.103	0.100
418.900	-9.051	0.100
419.000	-21.106	0.100
419.100	-3.368	0.100
419.200	-8.405	0.100
419.300	-13.053	0.100
419.400	-4.959	0.100
419.500	0.439	0.100
419.600	-8.283	0.100
419.700	-7.355	0.100
419.800	-4.306	0.100
419.900	1.847	0.100
420.000	-2.374	0.100
420.100	-14.317	0.100
420.200	-11.763	0.100
420.300	0.366	0.100
420.400	-13.291	0.100
420.500	2.883	0.100
420.600	-2.623	0.100
420.700	-14.353	0.100
420.800	-12.606	0.100
420.900	-5.365	0.100
421.000	-6.488	0.100
421.100	-6.070	0.100
421.200	-2.717	0.100
421.300	-3.489	0.100
421.400	-14.183	0.100
421.500	-1.915	0.100
421.600	-14.213	0.100
421.700	1.136	0.100
421.800	0.023	0.100
421.900	-8.118	0.100
422.000	-16.281	0.100
422.100	-6.007	0.100
422.200	2.863	0.100
422.300	-9.167	0.100
422.400	1.749	0.100
422.500	-11.954	0.100
422.600	-6.064	0.100
422.700	-3.091	0.100
422.800	-13.084	0.100
422.900	-0.017	0.100
423.000	0.389	0.100
423.100	-6.555	0.100
423.200	-5.911	0.100
423.300	-5.565	0.100
423.400	1.248	0.100
423.500	-11.391	0.100
423.600	-3.422	0.100
423.700	-7.117	0.100
423.800	-9.252	0.100
423.900	-12.090	0.100
424.000	-15.318	0.100
424.100	-1.602	0.100
424.200	3.656	0.100
424.300	-8.095	0.100
424.400	-8.657	0.100
424.500	-1.305	0.100
424.600	-15.781	0.100
424.700	1.477	0.100
424.800	-0.556	0.100
424.900	1.404	0.100
425.000	-5.404	0.100
425.100	-6.745	0.100
425.200	-9.629	0.100
425.300	-3.353	0.100
425.400	-2.410	0.100
425.500	-15.729	0.100
425.600	-4.910	0.100
425.700	-1.568	0.100
425.800	-1.390	0.100
425.900	-1.256	0.100
426.000	-9.305	0.100
426.100	-4.345	0.100
426.200	-16.591	0.100
426.300	-7.284	0.100
426.400	-2.874	0.100
426.500	1.461	0.100
426.600	0.597	0.100
426.700	-12.420	0.100
426.800	-8.099	0.100
426.900	-9.940	0.100
427.000	-12.292	0.100
427.100	-8.442	0.100
427.200	-6.161	0.100
427.300	-8.192	0.100
427.400	-1.230	0.100
427.500	1.943	0.100
427.600	-12.083	0.100
427.700	-4.953	0.100
427.800	-4.975	0.100
427.900	-8.176	0.100
428.000	-2.651	0.100
428.100	-16.135	0.100
428.200	-3.346	0.100
428.300	-0.310	0.100
428.400	-0.113	0.100
428.500	-9.004	0.100
428.600	-16.735	0.100
428.700	-3.881	0.100
428.800	-8.187	0.100
428.900	-4.404	0.100
429.000	-0.397	0.100
429.100	-3.881	0.100
429.200	-0.013	0.100
429.300	-11.852	0.100
429.400	-3.958	0.100
429.500	-7.573	0.100
429.600	-5.141	0.100
429.700	-6.304	0.100
429.800	-10.593	0.100
429.900	-6.506	0.100
430.000	-3.976	0.100
430.100	7.097	0.100
430.200	-14.347	0.100
430.300	-7.762	0.100
430.400	-3.409	0.100
430.500	-8.386	0.100
430.600	-6.954	0.100
430.700	-5.510	0.100
430.800	-8.752	0.100
430.900	0.346	0.100
431.000	-11.012	0.100
431.100	-9.869	0.100
431.200	-8.798	0.100
431.300	-9.327	0.100
431.400	-5.166	0.100
431.500	-11.658	0.100
431.600	-0.628	0.100
431.700	-0.290	0.100
431.800	-5.560	0.100
431.900	1.679	0.100
432.000	-8.066	0.100
432.100	-3.012	0.100
432.200	-9.010	0.100
432.300	-2.540	0.100
432.400	-8.961	0.100
432.500	-12.401	0.100
432.600	-0.637	0.100
432.700	1.103	0.100
432.800	-12.800	0.100
432.900	2.132	0.100
433.000	-3.949	0.100
433.100	-16.305	0.100
433.200	-1.924	0.100
433.300	9.119	0.100
433.400	-10.205	0.100
433.500	0.373	0.100
433.600	-3.551	0.100
433.700	-5.418	0.100
433.800	-1.419	0.100
433.900	-5.309	0.100
434.000	-4.507	0.100
434.100	-6.253	0.100
434.200	-10.368	0.100
434.300	-2.487	0.100
434.400	-0.517	0.100
434.500	-6.751	0.100
434.600	-10.428	0.100
434.700	0.328	0.100
434.800	-17.726	0.100
434.900	-9.893	0.100
435.000	-12.191	0.100
435.100	-10.750	0.100
435.200	-2.508	0.100
435.300	-1.032	0.100
435.400	-6.457	0.100
435.500	-7.485	0.100
435.600	-2.916	0.100
435.700	-3.462	0.100
435.800	-6.382	0.100
435.900	-7.293	0.100
436.000	-3.404	0.100
436.100	-9.704	0.100
436.200	-10.166	0.100
436.300	-2.787	0.100
436.400	-9.992	0.100
436.500	-7.929	0.100
436.600	-5.830	0.100
436.700	-8.438	0.100
436.800	-8.816	0.100
436.900	-7.326	0.100
437.000	-2.056	0.100
437.100	-0.771	0.100
437.200	-16.907	0.100
437.300	-14.536	0.100
437.400	-1.966	0.100
437.500	-5.492	0.100
437.600	-7.093	0.100
437.700	-6.442	0.100
437.800	-6.608	0.100
437.900	4.150	0.100
438.000	-5.421	0.100
438.100	-13.570	0.100
438.200	-4.777	0.100
438.300	-8.436	0.100
438.400	-5.436	0.100
438.500	-6.035	0.100
438.600	4.105	0.100
438.700	-3.380	0.100
438.800	0.962	0.100
438.900	-3.477	0.100
439.000	-14.751	0.100
439.100	1.360	0.100
439.200	-2.633	0.100
439.300	-13.197	0.100
439.400	-2.158	0.100
439.500	-14.881	0.100
439.600	-3.508	0.100
439.700	1.378	0.100
439.800	-14.806	0.100
439.900	-9.770	0.100
440.000	-12.282	0.100
440.100	-2.751	0.100
440.200	-1.735	0.100
440.300	-7.474	0.100
440.400	1.642	0.100
440.500	1.562	0.100
440.600	-18.023	0.100
440.700	-3.702	0.100
440.800	-3.383	0.100
440.900	-6.917	0.100
441.000	-8.822	0.100
441.100	-13.577	0.100
441.200	-4.917	0.100
441.300	-2.341	0.100
441.400	-1.606	0.100
441.500	-11.649	0.100
441.600	-7.285	0.100
441.700	-10.333	0.100
441.800	-8.584	0.100
441.900	0.648	0.100
442.000	3.587	0.100
442.100	1.146	0.100
442.200	-1.898	0.100
442.300	-9.466	0.100
442.400	-9.054	0.100
442.500	-5.491	0.100
442.600	0.189	0.100
442.700	0.037	0.100
442.800	-8.748	0.100
442.900	-8.142	0.100
443.000	-3.012	0.100
443.100	-15.482	0.100
443.200	-2.495	0.100
443.300	-11.494	0.100
443.400	-2.775	0.100
443.500	-2.271	0.100
443.600	-7.369	0.100
443.700	-3.644	0.100
443.800	-6.944	0.100
443.900	-0.655	0.100
444.000	1.533	0.100
444.100	-2.214	0.100
444.200	-3.460	0.100
444.300	-11.566	0.100
444.400	-15.170	0.100
444.500	0.089	0.100
444.600	-6.674	0.100
444.700	-4.580	0.100
444.800	-10.494	0.100
444.900	-6.161	0.100
445.000	-12.582	0.100
445.100	0.913	0.100
445.200	-3.127	0.100
445.300	-17.809	0.100
445.400	-2.441	0.100
445.500	-0.827	0.100
445.600	-7.279	0.100
445.700	1.756	0.100
445.800	-3.897	0.100
445.900	-5.873	0.100
446.000	-13.206	0.100
446.100	-10.085	0.100
446.200	8.363	0.100
446.300	-4.036	0.100
446.400	-12.494	0.100
446.500	3.657	0.100
446.600	-12.501	0.100
446.700	-8.215	0.100
446.800	-2.116	0.100
446.900	-0.876	0.100
447.000	-6.039	0.100
447.100	-5.133	0.100
447.200	-7.614	0.100
447.300	-9.924	0.100
447.400	-6.218	0.100
447.500	-11.440	0.100
447.600	-10.745	0.100
447.700	-8.174	0.100
447.800	1.520	0.100
447.900	-9.454	0.100
448.000	-7.531	0.100
448.100	-6.553	0.100
448.200	-4.253	0.100
448.300	-0.590	0.100
448.400	-3.822	0.100
448.500	-2.305	0.100
448.600	-2.004	0.100
448.700	-13.277	0.100
448.800	-2.348	0.100
448.900	-1.959	0.100
449.000	5.100	0.100
449.100	-14.461	0.100
449.200	-10.752	0.100
449.300	-10.141	0.100
449.400	-4.247	0.100
449.500	0.103	0.100
449.600	-10.027	0.100
449.700	-4.009	0.100
449.800	-11.040	0.100
449.900	-2.051	0.100
450.000	4.082	0.100
450.100	-0.452	0.100
450.200	-4.503	0.100
450.300	-7.541	0.100
450.400	0.158	0.100
450.500	-9.919	0.100
450.600	-3.415	0.100
450.700	-8.693	0.100
450.800	-8.513	0.100
450.900	-7.134	0.100
451.000	-7.063	0.100
451.100	-3.601	0.100
451.200	-7.178	0.100
451.300	-16.759	0.100
451.400	2.657	0.100
451.500	-4.843	0.100
451.600	-8.903	0.100
451.700	-11.500	0.100
451.800	-5.758	0.100
451.900	-11.190	0.100
452.000	-15.489	0.100
452.100	3.538	0.100
452.200	-6.827	0.100
452.300	-7.953	0.100
452.400	-2.445	0.100
452.500	-1.053	0.100
452.600	-2.633	0.100
452.700	4.594	0.100
452.800	-16.749	0.100
452.900	-12.033	0.100
453.000	-3.803	0.100
453.100	-1.463	0.100
453.200	0.275	0.100
453.300	-0.896	0.100
453.400	-1.088	0.100
453.500	-2.146	0.100
453.600	-11.831	0.100
453.700	0.074	0.100
453.800	-0.819	0.100
453.900	-9.068	0.100
454.000	-0.950	0.100
454.100	-6.630	0.100
454.200	-5.545	0.100
454.300	-13.587	0.100
454.400	-1.635	0.100
454.500	0.430	0.100
454.600	-4.522	0.100
454.700	0.684	0.100
454.800	-8.424	0.100
454.900	-6.707	0.100
455.000	-1.573	0.100
455.100	-0.594	0.100
455.200	0.545	0.100
455.300	-9.626	0.100
455.400	-8.762	0.100
455.500	-6.999	0.100
455.600	-5.372	0.100
455.700	-3.196	0.100
455.800	0.384	0.100
455.900	-11.448	0.100
456.000	-2.915	0.100
456.100	-4.847	0.100
456.200	-9.117	0.100
456.300	-3.369	0.100
456.400	0.517	0.100
456.500	-12.094	0.100
456.600	-5.538	0.100
456.700	-11.226	0.100
456.800	-0.139	0.100
456.900	-8.055	0.100
457.000	-9.073	0.100
457.100	-4.524	0.100
457.200	-7.417	0.100
457.300	-10.443	0.100
457.400	-4.707	0.100
457.500	-7.963	0.100
457.600	-2.826	0.100
457.700	-4.489	0.100
457.800	-4.577	0.100
457.900	-8.382	0.100
458.000	-4.854	0.100
458.100	-9.835	0.100
458.200	-10.161	0.100
458.300	4.934	0.100
458.400	-3.589	0.100
458.500	-3.736	0.100
458.600	-9.315	0.100
458.700	-11.479	0.100
458.800	2.392	0.100
458.900	-3.242	0.100
459.000	-4.974	0.100
459.100	-7.671	0.100
459.200	-13.049	0.100
459.300	-6.271	0.100
459.400	-6.656	0.100
459.500	4.229	0.100
459.600	-2.790	0.100
459.700	-16.878	0.100
459.800	-5.971	0.100
459.900	-11.579	0.100
460.000	-6.642	0.100
460.100	2.885	0.100
460.200	-3.564	0.100
460.300	-11.113	0.100
460.400	-12.264	0.100
460.500	-3.665	0.100
460.600	4.414	0.100
460.700	-9.186	0.100
460.800	-15.674	0.100
460.900	4.289	0.100
461.000	-3.758	0.100
461.100	-2.664	0.100
461.200	-7.354	0.100
461.300	1.334	0.100
461.400	-16.216	0.100
461.500	-4.682	0.100
461.600	-3.896	0.100
461.700	-6.369	0.100
461.800	-10.497	0.100
461.900	-10.413	0.100
462.000	7.086	0.100
462.100	-1.109	0.100
462.200	1.129	0.100
462.300	-11.622	0.100
462.400	-3.807	0.100
462.500	-0.648	0.100
462.600	-13.316	0.100
462.700	-14.938	0.100
462.800	-14.536	0.100
462.900	-2.932	0.100
463.000	-6.516	0.100
463.100	-7.504	0.100
463.200	5.002	0.100
463.300	-6.934	0.100
463.400	-5.547	0.100
463.500	-10.458	0.100
463.600	-10.494	0.100
463.700	-0.734	0.100
463.800	-3.246	0.100
463.900	-18.943	0.100
464.000	-18.486	0.100
464.100	2.734	0.100
464.200	-6.978	0.100
464.300	-2.638	0.100
464.400	1.793	0.100
464.500	1.621	0.100
464.600	-10.918	0.100
464.700	-0.889	0.100
464.800	-0.282	0.100
464.900	-12.713	0.100
465.000	-10.013	0.100
465.100	-4.041	0.100
465.200	-8.528	0.100
465.300	-10.061	0.100
465.400	4.913	0.100
465.500	-16.135	0.100
465.600	-9.244	0.100
465.700	1.856	0.100
465.800	1.406	0.100
465.900	5.185	0.100
466.000	-15.277	0.100
466.100	-11.147	0.100
466.200	0.957	0.100
466.300	-1.750	0.100
466.400	-8.768	0.100
466.500	-11.231	0.100
466.600	-5.408	0.100
466.700	-0.900	0.100
466.800	1.902	0.100
466.900	-8.903	0.100
467.000	-10.550	0.100
467.100	-2.482	0.100
467.200	-3.695	0.100
467.300	-6.743	0.100
467.400	-11.990	0.100
467.500	3.036	0.100
467.600	-1.422	0.100
467.700	-1.139	0.100
467.800	-10.657	0.100
467.900	-15.181	0.100
468.000	-13.904	0.100
468.100	1.845	0.100
468.200	1.290	0.100
468.300	-5.825	0.100
468.400	-9.563	0.100
468.500	-1.388	0.100
468.600	-2.201	0.100
468.700	-4.885	0.100
468.800	-2.758	0.100
468.900	-5.710	0.100
469.000	-5.518	0.100
469.100	-3.347	0.100
469.200	-2.435	0.100
469.300	-10.390	0.100
469.400	-3.482	0.100
469.500	0.882	0.100
469.600	-15.282	0.100
469.700	-6.454	0.100
469.800	-0.071	0.100
469.900	-13.732	0.100
470.000	-6.889	0.100
470.100	-1.999	0.100
470.200	-6.700	0.100
470.300	-2.013	0.100
470.400	-7.155	0.100
470.500	-10.062	0.100
470.600	-9.709	0.100
470.700	-4.643	0.100
470.800	-3.046	0.100
470.900	-5.099	0.100
471.000	-14.132	0.100
471.100	-8.653	0.100
471.200	4.329	0.100
471.300	-1.928	0.100
471.400	-1.717	0.100
471.500	-11.743	0.100
471.600	-5.427	0.100
471.700	-7.959	0.100
471.800	-4.379	0.100
471.900	-6.126	0.100
472.000	-14.389	0.100
472.100	-5.858	0.100
472.200	-5.927	0.100
472.300	-9.700	0.100
472.400	4.368	0.100
472.500	2.970	0.100
472.600	-4.069	0.100
472.700	-2.119	0.100
472.800	-5.189	0.100
472.900	-15.961	0.100
473.000	-2.610	0.100
473.100	-6.358	0.100
473.200	0.377	0.100
473.300	-3.925	0.100
473.400	-6.521	0.100
473.500	-8.587	0.100
473.600	-3.890	0.100
473.700	-1.826	0.100
473.800	-16.025	0.100
473.900	0.337	0.100
474.000	0.654	0.100
474.100	0.666	0.100
474.200	-3.065	0.100
474.300	-2.797	0.100
474.400	2.665	0.100
474.500	-17.002	0.100
474.600	-3.685	0.100
474.700	-19.683	0.100
474.800	-4.535	0.100
474.900	9.398	0.100
475.000	-5.707	0.100
475.100	-13.906	0.100
475.200	-9.014	0.100
475.300	4.794	0.100
475.400	-7.918	0.100
475.500	-6.254	0.100
475.600	-11.112	0.100
475.700	-9.757	0.100
475.800	-8.347	0.100
475.900	2.833	0.100
476.000	-2.486	0.100
476.100	-2.613	0.100
476.200	-4.326	0.100
476.300	-3.342	0.100
476.400	-12.296	0.100
476.500	-4.896	0.100
476.600	-5.440	0.100
476.700	-10.572	0.100
476.800	-6.736	0.100
476.900	-0.431	0.100
477.000	-4.235	0.100
477.100	-1.501	0.100
477.200	-3.201	0.100
477.300	-18.690	0.100
477.400	-10.676	0.100
477.500	4.145	0.100
477.600	-1.484	0.100
477.700	-5.146	0.100
477.800	-1.374	0.100
477.900	-7.896	0.100
478.000	-10.586	0.100
478.100	1.099	0.100
478.200	3.817	0.100
478.300	-5.574	0.100
478.400	-6.258	0.100
478.500	-7.337	0.100
478.600	-2.248	0.100
478.700	-2.501	0.100
478.800	-6.711	0.100
478.900	-2.881	0.100
479.000	-6.394	0.100
479.100	-1.034	0.100
479.200	-8.484	0.100
479.300	-0.578	0.100
479.400	-15.020	0.100
479.500	-9.614	0.100
479.600	-8.114	0.100
479.700	-4.591	0.100
479.800	-4.001	0.100
479.900	-4.063	0.100
480.000	13.279	0.100
480.100	-0.568	0.100
480.200	-1.159	0.100
480.300	-0.746	0.100
480.400	8.332	0.100
480.500	10.760	0.100
480.600	2.850	0.100
480.700	9.978	0.100
480.800	14.435	0.100
480.900	6.786	0.100
481.000	-3.365	0.100
481.100	19.722	0.100
481.200	9.956	0.100
481.300	11.377	0.100
481.400	16.754	0.100
481.500	7.185	0.100
481.600	8.598	0.100
481.700	6.899	0.100
481.800	5.220	0.100
481.900	8.959	0.100
482.000	9.645	0.100
482.100	7.399	0.100
482.200	6.761	0.100
482.300	4.782	0.100
482.400	6.959	0.100
482.500	9.782	0.100
482.600	9.081	0.100
482.700	12.368	0.100
482.800	-8.730	0.100
482.900	-0.025	0.100
483.000	12.732	0.100
483.100	17.534	0.100
483.200	11.797	0.100
483.300	1.551	0.100
483.400	-6.453	0.100
483.500	7.487	0.100
483.600	-1.485	0.100
483.700	8.659	0.100
483.800	-1.728	0.100
483.900	-3.339	0.100
484.000	-4.895	0.100
484.100	1.033	0.100
484.200	3.345	0.100
484.300	12.114	0.100
484.400	11.502	0.100
484.500	-4.447	0.100
484.600	11.392	0.100
484.700	7.232	0.100
484.800	4.086	0.100
484.900	-0.944	0.100
485.000	6.281	0.100
485.100	8.714	0.100
485.200	9.582	0.100
485.300	3.229	0.100
485.400	6.416	0.100
485.500	-6.414	0.100
485.600	-0.635	0.100
485.700	2.269	0.100
485.800	3.852	0.100
485.900	2.717	0.100
486.000	-2.523	0.100
486.100	4.161	0.100
486.200	-2.594	0.100
486.300	5.536	0.100
486.400	-4.622	0.100
486.500	5.107	0.100
486.600	-11.704	0.100
486.700	2.044	0.100
486.800	15.228	0.100
486.900	10.845	0.100
487.000	3.979	0.100
487.100	-3.682	0.100
487.200	6.353	0.100
487.300	-0.181	0.100
487.400	15.137	0.100
487.500	9.232	0.100
487.600	-5.753	0.100
487.700	1.451	0.100
487.800	9.851	0.100
487.900	3.179	0.100
488.000	6.306	0.100
488.100	2.462	0.100
488.200	-3.486	0.100
488.300	8.323	0.100
488.400	-1.371	0.100
488.500	10.900	0.100
488.600	6.585	0.100
488.700	6.386	0.100
488.800	-1.129	0.100
488.900	3.103	0.100
489.000	3.471	0.100
489.100	9.444	0.100
489.200	1.558	0.100
489.300	2.263	0.100
489.400	8.888	0.100
489.500	0.691	0.100
489.600	4.251	0.100
489.700	5.594	0.100
489.800	7.763	0.100
489.900	5.652	0.100
490.000	-3.400	0.100
490.100	12.764	0.100
490.200	8.905	0.100
490.300	0.517	0.100
490.400	3.074	0.100
490.500	4.549	0.100
490.600	7.025	0.100
490.700	9.426	0.100
490.800	-4.270	0.100
490.900	0.018	0.100
491.000	7.507	0.100
491.100	4.301	0.100
491.200	19.408	0.100
491.300	1.803	0.100
491.400	2.255	0.100
491.500	8.743	0.100
491.600	11.769	0.100
491.700	2.218	0.100
491.800	9.137	0.100
491.900	-2.691	0.100
492.000	-4.980	0.100
492.100	2.519	0.100
492.200	13.953	0.100
492.300	17.028	0.100
492.400	11.368	0.100
492.500	0.805	0.100
492.600	2.014	0.100
492.700	4.170	0.100
492.800	13.719	0.100
492.900	3.789	0.100
493.000	6.353	0.100
493.100	1.780	0.100
493.200	6.682	0.100
493.300	9.640	0.100
493.400	9.097	0.100
493.500	9.648	0.100
493.600	10.504	0.100
493.700	8.286	0.100
493.800	5.698	0.100
493.900	-0.362	0.100
494.000	7.726	0.100
494.100	7.671	0.100
494.200	14.818	0.100
494.300	-0.248	0.100
494.400	9.421	0.100
494.500	15.912	0.100
494.600	9.477	0.100
494.700	4.498	0.100
494.800	10.683	0.100
494.900	12.036	0.100
495.000	11.615	0.100
495.100	8.827	0.100
495.200	5.888	0.100
495.300	8.709	0.100
495.400	11.934	0.100
495.500	6.336	0.100
495.600	-2.721	0.100
495.700	1.120	0.100
495.800	18.429	0.100
495.900	8.970	0.100
496.000	15.469	0.100
496.100	13.153	0.100
496.200	6.232	0.100
496.300	18.294	0.100
496.400	3.602	0.100
496.500	6.881	0.100
496.600	-5.136	0.100
496.700	4.800	0.100
496.800	13.373	0.100
496.900	16.216	0.100
497.000	14.176	0.100
497.100	6.572	0.100
497.200	8.214	0.100
497.300	7.626	0.100
497.400	6.008	0.100
497.500	11.867	0.100
497.600	1.002	0.100
497.700	14.054	0.100
497.800	10.839	0.100
497.900	2.328	0.100
498.000	12.783	0.100
498.100	3.710	0.100
498.200	14.418	0.100
498.300	5.910	0.100
498.400	13.377	0.100
498.500	5.669	0.100
498.600	4.754	0.100
498.700	12.461	0.100
498.800	17.498	0.100
498.900	-0.173	0.100
499.000	8.340	0.100
499.100	11.204	0.100
499.200	10.956	0.100
499.300	5.283	0.100
499.400	9.807	0.100
499.500	15.003	0.100
499.600	7.862	0.100
499.700	5.484	0.100
499.800	10.950	0.100
499.900	11.788	0.100
500.000	4.971	0.100
500.100	6.966	0.100
500.200	8.167	0.100
500.300	11.718	0.100
500.400	12.650	0.100
500.500	4.233	0.100
500.600	4.944	0.100
500.700	-0.088	0.100
500.800	14.628	0.100
500.900	13.497	0.100
501.000	3.852	0.100
501.100	3.009	0.100
501.200	6.414	0.100
501.300	4.436	0.100
501.400	10.290	0.100
501.500	-0.222	0.100
501.600	11.109	0.100
501.700	0.684	0.100
501.800	1.635	0.100
501.900	4.030	0.100
502.000	15.262	0.100
502.100	7.266	0.100
502.200	9.155	0.100
502.300	-1.865	0.100
502.400	10.215	0.100
502.500	6.116	0.100
502.600	14.243	0.100
502.700	8.849	0.100
502.800	13.358	0.100
502.900	12.293	0.100
503.000	4.961	0.100
503.100	2.115	0.100
503.200	6.943	0.100
503.300	16.186	0.100
503.400	7.453	0.100
503.500	0.450	0.100
503.600	7.123	0.100
503.700	0.711	0.100
503.800	8.440	0.100
503.900	8.440	0.100
504.000	4.477	0.100
504.100	6.195	0.100
504.200	11.357	0.100
504.300	5.629	0.100
504.400	11.327	0.100
504.500	14.087	0.100
504.600	11.728	0.100
504.700	18.852	0.100
504.800	3.602	0.100
504.900	2.969	0.100
505.000	6.949	0.100
505.100	3.729	0.100
505.200	11.005	0.100
505.300	0.196	0.100
505.400	21.044	0.100
505.500	12.114	0.100
505.600	2.900	0.100
505.700	6.859	0.100
505.800	7.538	0.100
505.900	-1.879	0.100
506.000	10.370	0.100
506.100	3.031	0.100
506.200	5.470	0.100
506.300	2.223	0.100
506.400	-7.817	0.100
506.500	17.358	0.100
506.600	10.300	0.100
506.700	-0.524	0.100
506.800	4.398	0.100
506.900	4.688	0.100
507.000	7.114	0.100
507.100	6.538	0.100
507.200	3.220	0.100
507.300	8.332	0.100
507.400	3.282	0.100
507.500	9.462	0.100
507.600	-4.450	0.100
507.700	11.633	0.100
507.800	8.280	0.100
507.900	4.875	0.100
508.000	1.279	0.100
508.100	12.725	0.100
508.200	3.189	0.100
508.300	1.479	0.100
508.400	17.446	0.100
508.500	3.237	0.100
508.600	-1.259	0.100
508.700	16.976	0.100
508.800	5.316	0.100
508.900	1.516	0.100
509.000	7.161	0.100
509.100	12.707	0.100
509.200	13.991	0.100
509.300	13.199	0.100
509.400	5.136	0.100
509.500	-0.042	0.100
509.600	8.380	0.100
509.700	7.673	0.100
509.800	3.706	0.100
509.900	6.468	0.100
510.000	5.991	0.100
510.100	4.534	0.100
510.200	9.006	0.100
510.300	12.318	0.100
510.400	5.067	0.100
510.500	5.449	0.100
510.600	1.368	0.100
510.700	13.474	0.100
510.800	7.095	0.100
510.900	5.316	0.100
511.000	1.194	0.100
511.100	-0.948	0.100
511.200	0.543	0.100
511.300	1.966	0.100
511.400	4.142	0.100
511.500	4.408	0.100
511.600	9.335	0.100
511.700	6.139	0.100
511.800	13.749	0.100
511.900	6.568	0.100
512.000	4.724	0.100
512.100	8.157	0.100
512.200	7.367	0.100
512.300	19.042	0.100
512.400	7.484	0.100
512.500	5.347	0.100
512.600	6.594	0.100
512.700	3.476	0.100
512.800	9.370	0.100
512.900	4.213	0.100
513.000	8.022	0.100
513.100	7.117	0.100
513.200	9.254	0.100
513.300	11.147	0.100
513.400	8.770	0.100
513.500	10.292	0.100
513.600	12.075	0.100
513.700	8.824	0.100
513.800	4.937	0.100
513.900	-0.980	0.100
514.000	7.797	0.100
514.100	12.316	0.100
514.200	11.260	0.100
514.300	6.711	0.100
514.400	9.148	0.100
514.500	6.999	0.100
514.600	10.626	0.100
514.700	7.386	0.100
514.800	9.612	0.100
514.900	7.007	0.100
515.000	10.597	0.100
515.100	-0.498	0.100
515.200	0.585	0.100
515.300	7.703	0.100
515.400	5.678	0.100
515.500	10.036	0.100
515.600	13.482	0.100
515.700	7.669	0.100
515.800	11.389	0.100
515.900	6.296	0.100
516.000	8.839	0.100
516.100	-1.045	0.100
516.200	9.660	0.100
516.300	1.811	0.100
516.400	9.794	0.100
516.500	8.835	0.100
516.600	14.157	0.100
516.700	4.491	0.100
516.800	11.207	0.100
516.900	7.412	0.100
517.000	7.189	0.100
517.100	9.238	0.100
517.200	5.355	0.100
517.300	7.914	0.100
517.400	14.719	0.100
517.500	-0.490	0.100
517.600	3.642	0.100
517.700	4.060	0.100
517.800	8.099	0.100
517.900	10.250	0.100
518.000	-1.129	0.100
518.100	8.342	0.100
518.200	4.515	0.100
518.300	7.296	0.100
518.400	8.157	0.100
518.500	9.587	0.100
518.600	0.482	0.100
518.700	13.298	0.100
518.800	8.158	0.100
518.900	11.820	0.100
519.000	2.185	0.100
519.100	11.474	0.100
519.200	8.845	0.100
519.300	2.776	0.100
519.400	2.667	0.100
519.500	-5.403	0.100
519.600	0.064	0.100
519.700	11.676	0.100
519.800	10.799	0.100
519.900	-2.946	0.100
520.000	13.607	0.100
520.100	15.527	0.100
520.200	8.038	0.100
520.300	13.066	0.100
520.400	5.865	0.100
520.500	1.238	0.100
520.600	-1.943	0.100
520.700	9.537	0.100
520.800	3.820	0.100
520.900	5.141	0.100
521.000	-5.948	0.100
521.100	13.907	0.100
521.200	11.237	0.100
521.300	15.718	0.100
521.400	11.682	0.100
521.500	9.726	0.100
521.600	2.243	0.100
521.700	-2.315	0.100
521.800	16.527	0.100
521.900	2.357	0.100
522.000	2.587	0.100
522.100	8.558	0.100
522.200	12.797	0.100
522.300	15.370	0.100
522.400	3.908	0.100
522.500	19.537	0.100
522.600	8.277	0.100
522.700	1.111	0.100
522.800	0.997	0.100
522.900	13.001	0.100
523.000	12.519	0.100
523.100	-1.358	0.100
523.200	9.281	0.100
523.300	8.269	0.100
523.400	6.938	0.100
523.500	-5.316	0.100
523.600	0.921	0.100
523.700	7.932	0.100
523.800	14.379	0.100
523.900	11.494	0.100
524.000	6.960	0.100
524.100	8.634	0.100
524.200	1.860	0.100
524.300	7.439	0.100
524.400	1.251	0.100
524.500	6.082	0.100
524.600	8.954	0.100
524.700	6.134	0.100
524.800	-4.625	0.100
524.900	5.237	0.100
525.000	8.404	0.100
525.100	11.817	0.100
525.200	6.997	0.100
525.300	2.676	0.100
525.400	9.966	0.100
525.500	4.482	0.100
525.600	5.873	0.100
525.700	7.565	0.100
525.800	0.914	0.100
525.900	8.987	0.100
526.000	13.323	0.100
526.100	13.647	0.100
526.200	1.608	0.100
526.300	6.621	0.100
526.400	5.608	0.100
526.500	7.803	0.100
526.600	9.658	0.100
526.700	10.035	0.100
526.800	7.795	0.100
526.900	8.855	0.100
527.000	-0.614	0.100
527.100	11.642	0.100
527.200	7.452	0.100
527.300	12.805	0.100
527.400	7.691	0.100
527.500	0.510	0.100
527.600	3.426	0.100
527.700	11.892	0.100
527.800	9.399	0.100
527.900	2.611	0.100
528.000	1.614	0.100
528.100	9.827	0.100
528.200	4.193	0.100
528.300	7.018	0.100
528.400	1.476	0.100
528.500	0.282	0.100
528.600	0.450	0.100
528.700	4.970	0.100
528.800	7.554	0.100
528.900	7.901	0.100
529.000	12.517	0.100
529.100	2.644	0.100
529.200	10.973	0.100
529.300	2.040	0.100
529.400	13.033	0.100
529.500	13.926	0.100
529.600	2.707	0.100
529.700	3.165	0.100
529.800	6.150	0.100
529.900	1.778	0.100
530.000	6.851	0.100
530.100	9.613	0.100
530.200	6.374	0.100
530.300	7.403	0.100
530.400	17.471	0.100
530.500	3.423	0.100
530.600	4.038	0.100
530.700	7.461	0.100
530.800	18.857	0.100
530.900	11.322	0.100
531.000	7.258	0.100
531.100	9.891	0.100
531.200	1.983	0.100
531.300	-2.834	0.100
531.400	6.500	0.100
531.500	8.521	0.100
531.600	6.477	0.100
531.700	4.347	0.100
531.800	9.558	0.100
531.900	8.906	0.100
532.000	3.309	0.100
532.100	7.323	0.100
532.200	11.467	0.100
532.300	16.563	0.100
532.400	9.546	0.100
532.500	8.156	0.100
532.600	3.980	0.100
532.700	3.303	0.100
532.800	8.708	0.100
532.900	0.727	0.100
533.000	-2.563	0.100
533.100	4.882	0.100
533.200	18.537	0.100
533.300	11.077	0.100
533.400	6.534	0.100
533.500	-2.448	0.100
533.600	-3.041	0.100
533.700	5.342	0.100
533.800	6.652	0.100
533.900	12.060	0.100
534.000	2.504	0.100
534.100	3.296	0.100
534.200	8.251	0.100
534.300	16.831	0.100
534.400	1.169	0.100
534.500	4.174	0.100
534.600	5.246	0.100
534.700	6.077	0.100
534.800	6.003	0.100
534.900	11.600	0.100
535.000	5.743	0.100
535.100	13.427	0.100
535.200	7.092	0.100
535.300	12.550	0.100
535.400	-8.307	0.100
535.500	5.788	0.100
535.600	4.147	0.100
535.700	2.973	0.100
535.800	9.757	0.100
535.900	2.193	0.100
536.000	8.062	0.100
536.100	2.106	0.100
536.200	11.220	0.100
536.300	7.101	0.100
536.400	4.790	0.100
536.500	9.945	0.100
536.600	9.895	0.100
536.700	4.091	0.100
536.800	9.099	0.100
536.900	7.323	0.100
537.000	13.957	0.100
537.100	4.568	0.100
537.200	0.354	0.100
537.300	-7.686	0.100
537.400	10.557	0.100
537.500	8.237	0.100
537.600	7.201	0.100
537.700	9.272	0.100
537.800	12.877	0.100
537.900	7.950	0.100
538.000	3.286	0.100
538.100	4.520	0.100
538.200	3.727	0.100
538.300	2.600	0.100
538.400	10.991	0.100
538.500	0.872	0.100
538.600	11.368	0.100
538.700	3.116	0.100
538.800	1.640	0.100
538.900	9.375	0.100
539.000	9.852	0.100
539.100	-0.670	0.100
539.200	0.355	0.100
539.300	11.136	0.100
539.400	9.392	0.100
539.500	1.060	0.100
539.600	3.301	0.100
539.700	5.919	0.100
539.800	1.843	0.100
539.900	-0.432	0.100
540.000	2.919	0.100
540.100	-3.791	0.100
540.200	-7.002	0.100
540.300	-11.668	0.100
540.400	-3.640	0.100
540.500	-3.090	0.100
540.600	-9.780	0.100
540.700	-15.494	0.100
540.800	-8.914	0.100
540.900	-17.976	0.100
541.000	-6.654	0.100
541.100	-16.334	0.100
541.200	-17.130	0.100
541.300	-16.308	0.100
541.400	-8.236	0.100
541.500	-13.096	0.100
541.600	-16.779	0.100
541.700	-14.775	0.100
541.800	-21.342	0.100
541.900	-26.475	0.100
542.000	-13.599	0.100
542.100	-8.945	0.100
542.200	-13.907	0.100
542.300	-15.267	0.100
542.400	-20.090	0.100
542.500	-18.333	0.100
542.600	-23.148	0.100
542.700	-16.619	0.100
542.800	-13.663	0.100
542.900	-8.179	0.100
543.000	-17.862	0.100
543.100	-17.818	0.100
543.200	-18.808	0.100
543.300	-15.220	0.100
543.400	-14.473	0.100
543.500	-11.519	0.100
543.600	-26.959	0.100
543.700	-11.730	0.100
543.800	-16.873	0.100
543.900	-14.981	0.100
544.000	-5.950	0.100
544.100	-11.802	0.100
544.200	-11.035	0.100
544.300	-13.721	0.100
544.400	-17.744	0.100
544.500	-15.098	0.100
544.600	-16.694	0.100
544.700	-5.153	0.100
544.800	-14.529	0.100
544.900	-6.508	0.100
545.000	-10.322	0.100
545.100	-15.641	0.100
545.200	-7.778	0.100
545.300	-12.627	0.100
545.400	-17.224	0.100
545.500	-14.329	0.100
545.600	-12.647	0.100
545.700	-14.245	0.100
545.800	-6.733	0.100
545.900	-10.841	0.100
546.000	-8.616	0.100
546.100	-10.506	0.100
546.200	4.105	0.100
546.300	-6.894	0.100
546.400	-10.491	0.100
546.500	-17.442	0.100
546.600	-11.238	0.100
546.700	-11.076	0.100
546.800	-0.129	0.100
546.900	-8.257	0.100
547.000	-7.658	0.100
547.100	-4.598	0.100
547.200	-5.592	0.100
547.300	-1.255	0.100
547.400	-14.640	0.100
547.500	-3.096	0.100
547.600	-14.484	0.100
547.700	-0.278	0.100
547.800	-8.815	0.100
547.900	-12.285	0.100
548.000	1.395	0.100
548.100	-18.922	0.100
548.200	-4.053	0.100
548.300	-4.580	0.100
548.400	-7.878	0.100
548.500	-24.041	0.100
548.600	-9.449	0.100
548.700	-6.183	0.100
548.800	-6.815	0.100
548.900	-3.705	0.100
549.000	-8.571	0.100
549.100	-10.569	0.100
549.200	-2.051	0.100
549.300	-8.114	0.100
549.400	-14.186	0.100
549.500	-3.092	0.100
549.600	-10.482	0.100
549.700	-4.216	0.100
549.800	-11.285	0.100
549.900	-8.403	0.100
550.000	-11.634	0.100
550.100	-9.159	0.100
550.200	-7.113	0.100
550.300	-5.231	0.100
550.400	-9.546	0.100
550.500	-8.394	0.100
550.600	-8.833	0.100
550.700	-11.357	0.100
550.800	-4.108	0.100
550.900	-7.975	0.100
551.000	-1.591	0.100
551.100	-8.294	0.100
551.200	-22.700	0.100
551.300	-6.289	0.100
551.400	2.718	0.100
551.500	-12.541	0.100
551.600	-6.166	0.100
551.700	-1.809	0.100
551.800	-7.167	0.100
551.900	-8.459	0.100
552.000	-5.833	0.100
552.100	-4.347	0.100
552.200	-1.635	0.100
552.300	-18.821	0.100
552.400	-13.486	0.100
552.500	-13.986	0.100
552.600	-1.613	0.100
552.700	-9.313	0.100
552.800	-5.683	0.100
552.900	-5.305	0.100
553.000	-7.671	0.100
553.100	-9.751	0.100
553.200	-8.412	0.100
553.300	-10.018	0.100
553.400	-10.039	0.100
553.500	-13.189	0.100
553.600	-1.639	0.100
553.700	-4.638	0.100
553.800	-3.914	0.100
553.900	-12.316	0.100
554.000	-13.822	0.100
554.100	0.883	0.100
554.200	-4.993	0.100
554.300	-9.047	0.100
554.400	-4.069	0.100
554.500	-12.077	0.100
554.600	-9.148	0.100
554.700	-3.831	0.100
554.800	-0.474	0.100
554.900	-19.953	0.100
555.000	-22.317	0.100
555.100	-3.814	0.100
555.200	-0.175	0.100
555.300	-10.969	0.100
555.400	-14.090	0.100
555.500	-6.131	0.100
555.600	-3.603	0.100
555.700	-2.058	0.100
555.800	-9.390	0.100
555.900	-9.609	0.100
556.000	-4.988	0.100
556.100	-8.751	0.100
556.200	-4.086	0.100
556.300	-7.538	0.100
556.400	-11.824	0.100
556.500	-5.607	0.100
556.600	-6.978	0.100
556.700	-3.389	0.100
556.800	-12.539	0.100
556.900	-17.442	0.100
557.000	-4.069	0.100
557.100	-2.899	0.100
557.200	-13.609	0.100
557.300	-8.024	0.100
557.400	-7.643	0.100
557.500	-8.271	0.100
557.600	-4.386	0.100
557.700	-2.461	0.100
557.800	-9.449	0.100
557.900	-7.418	0.100
558.000	-16.424	0.100
558.100	-6.105	0.100
558.200	-8.388	0.100
558.300	-7.724	0.100
558.400	-12.480	0.100
558.500	2.723	0.100
558.600	-7.273	0.100
558.700	-7.213	0.100
558.800	-8.832	0.100
558.900	-1.887	0.100
559.000	-11.878	0.100
559.100	-13.665	0.100
559.200	-13.007	0.100
559.300	-1.247	0.100
559.400	-16.349	0.100
559.500	-10.653	0.100
559.600	0.172	0.100
559.700	2.128	0.100
559.800	-8.239	0.100
559.900	-3.967	0.100
560.000	-7.055	0.100
560.100	-8.433	0.100
560.200	-9.998	0.100
560.300	-9.695	0.100
560.400	-1.234	0.100
560.500	-11.765	0.100
560.600	-3.307	0.100
560.700	-7.758	0.100
560.800	-5.740	0.100
560.900	-6.378	0.100
561.000	-14.481	0.100
561.100	-0.584	0.100
561.200	-8.962	0.100
561.300	-6.543	0.100
561.400	-11.619	0.100
561.500	-5.945	0.100
561.600	-14.160	0.100
561.700	-8.039	0.100
561.800	-15.888	0.100
561.900	4.391	0.100
562.000	-0.114	0.100
562.100	-10.595	0.100
562.200	-5.743	0.100
562.300	-9.950	0.100
562.400	-14.203	0.100
562.500	-8.233	0.100
562.600	-11.410	0.100
562.700	-9.267	0.100
562.800	-1.395	0.100
562.900	-1.428	0.100
563.000	-4.405	0.100
563.100	-10.047	0.100
563.200	-8.882	0.100
563.300	-9.251	0.100
563.400	-4.802	0.100
563.500	-5.507	0.100
563.600	-4.776	0.100
563.700	-10.859	0.100
563.800	-15.036	0.100
563.900	0.367	0.100
564.000	-3.706	0.100
564.100	-6.748	0.100
564.200	-8.796	0.100
564.300	-19.227	0.100
564.400	-11.459	0.100
564.500	10.158	0.100
564.600	-9.662	0.100
564.700	-4.660	0.100
564.800	-14.242	0.100
564.900	-8.733	0.100
565.000	-5.264	0.100
565.100	-10.876	0.100
565.200	-6.189	0.100
565.300	-9.029	0.100
565.400	-9.651	0.100
565.500	-2.501	0.100
565.600	-6.256	0.100
565.700	-7.992	0.100
565.800	-5.130	0.100
565.900	-2.450	0.100
566.000	-15.141	0.100
566.100	-6.412	0.100
566.200	-14.784	0.100
566.300	-16.326	0.100
566.400	-4.188	0.100
566.500	-7.509	0.100
566.600	-10.397	0.100
566.700	-1.410	0.100
566.800	-5.335	0.100
566.900	-13.246	0.100
567.000	-6.929	0.100
567.100	-8.406	0.100
567.200	-9.233	0.100
567.300	-7.981	0.100
567.400	-8.424	0.100
567.500	-9.862	0.100
567.600	2.286	0.100
567.700	-9.433	0.100
567.800	-13.239	0.100
567.900	-15.325	0.100
568.000	-10.629	0.100
568.100	-12.904	0.100
568.200	-1.838	0.100
568.300	-3.877	0.100
568.400	-0.840	0.100
568.500	-11.337	0.100
568.600	-2.806	0.100
568.700	-7.176	0.100
568.800	-11.281	0.100
568.900	2.177	0.100
569.000	-10.223	0.100
569.100	-5.674	0.100
569.200	-4.371	0.100
569.300	-4.572	0.100
569.400	-4.678	0.100
569.500	-2.243	0.100
569.600	-11.014	0.100
569.700	-13.110	0.100
569.800	-5.362	0.100
569.900	-9.715	0.100
570.000	-5.433	0.100
570.100	-9.904	0.100
570.200	-10.051	0.100
570.300	-8.212	0.100
570.400	-9.095	0.100
570.500	-12.130	0.100
570.600	-8.443	0.100
570.700	-6.885	0.100
570.800	-2.581	0.100
570.900	-3.966	0.100
571.000	-5.988	0.100
571.100	-5.155	0.100
571.200	-10.057	0.100
571.300	-5.873	0.100
571.400	-4.625	0.100
571.500	-2.708	0.100
571.600	-10.580	0.100
571.700	-13.584	0.100
571.800	-15.558	0.100
571.900	-5.320	0.100
572.000	-8.264	0.100
572.100	7.254	0.100
572.200	-5.237	0.100
572.300	-12.659	0.100
572.400	-5.057	0.100
572.500	-7.692	0.100
572.600	-16.558	0.100
572.700	-9.338	0.100
572.800	-9.698	0.100
572.900	-1.972	0.100
573.000	-5.533	0.100
573.100	-6.612	0.100
573.200	-7.881	0.100
573.300	-5.992	0.100
573.400	-5.684	0.100
573.500	-18.890	0.100
573.600	-12.342	0.100
573.700	-0.417	0.100
573.800	-0.284	0.100
573.900	-8.666	0.100
574.000	-6.492	0.100
574.100	-6.214	0.100
574.200	-8.645	0.100
574.300	-8.389	0.100
574.400	-15.575	0.100
574.500	-8.829	0.100
574.600	-5.516	0.100
574.700	-5.183	0.100
574.800	-1.179	0.100
574.900	-1.539	0.100
575.000	-15.328	0.100
575.100	-11.143	0.100
575.200	-3.008	0.100
575.300	-4.376	0.100
575.400	-0.938	0.100
575.500	-4.488	0.100
575.600	2.498	0.100
575.700	-9.451	0.100
575.800	-19.878	0.100
575.900	-9.749	0.100
576.000	-5.687	0.100
576.100	-7.214	0.100
576.200	-3.234	0.100
576.300	-11.724	0.100
576.400	-7.784	0.100
576.500	-2.590	0.100
576.600	-11.649	0.100
576.700	-4.881	0.100
576.800	-8.134	0.100
576.900	-3.183	0.100
577.000	-11.494	0.100
577.100	-4.538	0.100
577.200	-6.842	0.100
577.300	-16.045	0.100
577.400	-12.582	0.100
577.500	-6.035	0.100
577.600	-13.330	0.100
577.700	-3.602	0.100
577.800	-12.577	0.100
577.900	-0.680	0.100
578.000	-1.004	0.100
578.100	-9.362	0.100
578.200	-13.516	0.100
578.300	-10.269	0.100
578.400	-2.354	0.100
578.500	-7.536	0.100
578.600	-10.578	0.100
578.700	-6.959	0.100
578.800	-5.553	0.100
578.900	-3.105	0.100
579.000	-18.861	0.100
579.100	-9.535	0.100
579.200	-11.153	0.100
579.300	-7.347	0.100
579.400	1.486	0.100
579.500	-8.098	0.100
579.600	-4.148	0.100
579.700	-7.673	0.100
579.800	-2.149	0.100
579.900	-8.129	0.100
580.000	-1.312	0.100
580.100	-11.361	0.100
580.200	-13.022	0.100
580.300	-6.662	0.100
580.400	-9.527	0.100
580.500	-15.354	0.100
580.600	-3.247	0.100
580.700	-0.669	0.100
580.800	-2.576	0.100
580.900	-3.319	0.100
581.000	-7.373	0.100
581.100	-0.691	0.100
581.200	-16.545	0.100
581.300	-8.347	0.100
581.400	-15.360	0.100
581.500	-9.965	0.100
581.600	-5.067	0.100
581.700	-9.028	0.100
581.800	-11.044	0.100
581.900	-5.482	0.100
582.000	-15.864	0.100
582.100	-6.417	0.100
582.200	-8.525	0.100
582.300	-1.456	0.100
582.400	4.563	0.100
582.500	-6.688	0.100
582.600	-2.442	0.100
582.700	-5.609	0.100
582.800	-6.243	0.100
582.900	-10.525	0.100
583.000	-9.758	0.100
583.100	0.988	0.100
583.200	-7.178	0.100
583.300	-10.612	0.100
583.400	-5.846	0.100
583.500	-12.537	0.100
583.600	-7.777	0.100
583.700	-18.939	0.100
583.800	-6.124	0.100
583.900	-4.290	0.100
584.000	0.774	0.100
584.100	-5.785	0.100
584.200	-2.453	0.100
584.300	-9.475	0.100
584.400	-16.205	0.100
584.500	-7.769	0.100
584.600	-12.520	0.100
584.700	-0.477	0.100
584.800	-8.192	0.100
584.900	-12.810	0.100
585.000	-10.583	0.100
585.100	-3.204	0.100
585.200	-2.032	0.100
585.300	-17.745	0.100
585.400	-12.644	0.100
585.500	-10.353	0.100
585.600	-7.767	0.100
585.700	-15.613	0.100
585.800	-8.274	0.100
585.900	-9.292	0.100
586.000	1.459	0.100
586.100	5.586	0.100
586.200	-10.768	0.100
586.300	0.350	0.100
586.400	-11.859	0.100
586.500	-10.882	0.100
586.600	-11.973	0.100
586.700	-14.041	0.100
586.800	-2.661	0.100
586.900	6.796	0.100
587.000	-4.315	0.100
587.100	-5.071	0.100
587.200	-13.091	0.100
587.300	-9.508	0.100
587.400	-5.921	0.100
587.500	-7.027	0.100
587.600	0.085	0.100
587.700	-8.369	0.100
587.800	-4.540	0.100
587.900	-0.263	0.100
588.000	-11.584	0.100
588.100	-4.910	0.100
588.200	-5.884	0.100
588.300	-15.139	0.100
588.400	-4.589	0.100
588.500	-6.459	0.100
588.600	-6.051	0.100
588.700	-10.343	0.100
588.800	1.482	0.100
588.900	-6.681	0.100
589.000	-3.406	0.100
589.100	-16.013	0.100
589.200	-0.188	0.100
589.300	-4.672	0.100
589.400	-7.090	0.100
589.500	-11.379	0.100
589.600	-2.807	0.100
589.700	-4.313	0.100
589.800	-5.644	0.100
589.900	-9.947	0.100
590.000	-12.104	0.100
590.100	-0.040	0.100
590.200	-5.670	0.100
590.300	-5.956	0.100
590.400	-6.849	0.100
590.500	-10.560	0.100
590.600	-5.450	0.100
590.700	-3.049	0.100
590.800	-9.732	0.100
590.900	-1.519	0.100
591.000	-7.756	0.100
591.100	-1.932	0.100
591.200	6.804	0.100
591.300	-11.075	0.100
591.400	-22.872	0.100
591.500	-7.026	0.100
591.600	-9.656	0.100
591.700	-1.620	0.100
591.800	-5.285	0.100
591.900	-13.044	0.100
592.000	-9.457	0.100
592.100	-0.302	0.100
592.200	-0.471	0.100
592.300	-11.988	0.100
592.400	-7.681	0.100
592.500	-7.282	0.100
592.600	1.849	0.100
592.700	-9.292	0.100
592.800	-11.077	0.100
592.900	-16.096	0.100
593.000	-8.130	0.100
593.100	1.864	0.100
593.200	2.182	0.100
593.300	-6.053	0.100
593.400	-10.186	0.100
593.500	-12.326	0.100
593.600	-10.094	0.100
593.700	-12.527	0.100
593.800	-3.821	0.100
593.900	-1.286	0.100
594.000	-0.826	0.100
594.100	-9.888	0.100
594.200	-6.233	0.100
594.300	-0.262	0.100
594.400	-12.177	0.100
594.500	-2.081	0.100
594.600	-12.743	0.100
594.700	-15.663	0.100
594.800	-9.570	0.100
594.900	-4.093	0.100
595.000	-3.832	0.100
595.100	-10.469	0.100
595.200	-5.203	0.100
595.300	-0.512	0.100
595.400	-5.999	0.100
595.500	-0.748	0.100
595.600	-5.872	0.100
595.700	-12.239	0.100
595.800	-2.505	0.100
595.900	-2.598	0.100
596.000	-6.959	0.100
596.100	-12.818	0.100
596.200	-5.994	0.100
596.300	-0.550	0.100
596.400	-5.309	0.100
596.500	-1.229	0.100
596.600	-13.781	0.100
596.700	-5.827	0.100
596.800	-8.552	0.100
596.900	-1.926	0.100
597.000	-13.966	0.100
597.100	0.944	0.100
597.200	1.942	0.100
597.300	-7.666	0.100
597.400	-14.014	0.100
597.500	-3.010	0.100
597.600	-8.996	0.100
597.700	-2.505	0.100
597.800	-4.269	0.100
597.900	-9.369	0.100
598.000	-11.337	0.100
598.100	-8.040	0.100
598.200	-1.463	0.100
598.300	-14.011	0.100
598.400	-6.549	0.100
598.500	-4.241	0.100
598.600	-3.303	0.100
598.700	-4.411	0.100
598.800	3.162	0.100
598.900	-6.072	0.100
599.000	-11.488	0.100
599.100	-9.596	0.100
599.200	4.791	0.100
599.300	-3.908	0.100
599.400	-6.610	0.100
599.500	-7.008	0.100
599.600	-9.885	0.100
599.700	-10.274	0.100
599.800	-1.798	0.100
599.900	4.076	0.100
600.000	-1.975	0.100
600.100	-11.118	0.100
600.200	-9.267	0.100
600.300	-8.480	0.100
600.400	2.454	0.100
600.500	-14.661	0.100
600.600	-7.933	0.100
600.700	-4.771	0.100
600.800	-6.672	0.100
600.900	-13.993	0.100
601.000	6.543	0.100
601.100	-6.297	0.100
601.200	-3.071	0.100
601.300	-16.265	0.100
601.400	-2.017	0.100
601.500	0.865	0.100
601.600	-2.911	0.100
601.700	-9.887	0.100
601.800	-15.222	0.100
601.900	0.528	0.100
602.000	-4.390	0.100
602.100	-6.945	0.100
602.200	0.164	0.100
602.300	-11.495	0.100
602.400	6.929	0.100
602.500	-10.902	0.100
602.600	-5.161	0.100
602.700	-5.863	0.100
602.800	-9.759	0.100
602.900	-11.751	0.100
603.000	4.831	0.100
603.100	1.062	0.100
603.200	-9.512	0.100
603.300	-12.771	0.100
603.400	-4.737	0.100
603.500	-8.283	0.100
603.600	-2.748	0.100
603.700	1.612	0.100
603.800	-8.430	0.100
603.900	-6.398	0.100
604.000	-10.853	0.100
604.100	-5.658	0.100
604.200	-0.579	0.100
604.300	-4.644	0.100
604.400	3.900	0.100
604.500	-10.546	0.100
604.600	-8.723	0.100
604.700	-13.152	0.100
604.800	-0.369	0.100
604.900	-2.309	0.100
605.000	-2.384	0.100
605.100	-5.039	0.100
605.200	-9.378	0.100
605.300	-9.660	0.100
605.400	-4.272	0.100
605.500	-3.423	0.100
605.600	-0.523	0.100
605.700	-7.369	0.100
605.800	-3.648	0.100
605.900	-4.600	0.100
606.000	-5.760	0.100
606.100	-4.978	0.100
606.200	2.218	0.100
606.300	-19.776	0.100
606.400	-11.320	0.100
606.500	-13.133	0.100
606.600	0.024	0.100
606.700	-4.188	0.100
606.800	-5.865	0.100
606.900	-5.184	0.100
607.000	-3.454	0.100
607.100	-5.335	0.100
607.200	-9.192	0.100
607.300	-16.332	0.100
607.400	-6.441	0.100
607.500	-6.916	0.100
607.600	-12.249	0.100
607.700	-3.412	0.100
607.800	-0.552	0.100
607.900	-3.014	0.100
608.000	-6.336	0.100
608.100	-5.832	0.100
608.200	-7.275	0.100
608.300	-6.250	0.100
608.400	-11.076	0.100
608.500	-5.008	0.100
608.600	1.124	0.100
608.700	-4.467	0.100
608.800	-2.031	0.100
608.900	-9.564	0.100
609.000	-14.307	0.100
609.100	-6.838	0.100
609.200	-0.924	0.100
609.300	-8.445	0.100
609.400	-2.112	0.100
609.500	-7.960	0.100
609.600	-10.755	0.100
609.700	-9.184	0.100
609.800	-9.582	0.100
609.900	-2.285	0.100
610.000	-0.080	0.100
610.100	-9.218	0.100
610.200	-4.236	0.100
610.300	-4.630	0.100
610.400	4.943	0.100
610.500	-5.165	0.100
610.600	-4.327	0.100
610.700	-6.131	0.100
610.800	-7.258	0.100
610.900	-10.070	0.100
611.000	-8.417	0.100
611.100	-7.197	0.100
611.200	-2.937	0.100
611.300	-4.989	0.100
611.400	-9.643	0.100
611.500	-7.407	0.100
611.600	-13.193	0.100
611.700	-5.191	0.100
611.800	-1.502	0.100
611.900	2.563	0.100
612.000	-11.021	0.100
612.100	-9.773	0.100
612.200	-4.342	0.100
612.300	-6.199	0.100
612.400	-7.500	0.100
612.500	-6.499	0.100
612.600	-6.923	0.100
612.700	-3.641	0.100
612.800	-12.237	0.100
612.900	-10.288	0.100
613.000	0.928	0.100
613.100	-4.180	0.100
613.200	-13.437	0.100
613.300	-4.758	0.100
613.400	-6.510	0.100
613.500	-13.673	0.100
613.600	-3.806	0.100
613.700	0.569	0.100
613.800	-13.069	0.100
613.900	-0.847	0.100
614.000	-4.522	0.100
614.100	-11.935	0.100
614.200	2.707	0.100
614.300	-0.219	0.100
614.400	-2.074	0.100
614.500	-4.729	0.100
614.600	-1.338	0.100
614.700	-6.679	0.100
614.800	-15.234	0.100
614.900	-17.009	0.100
615.000	-11.898	0.100
615.100	-8.346	0.100
615.200	-2.705	0.100
615.300	-4.579	0.100
615.400	-4.206	0.100
615.500	-0.438	0.100
615.600	-5.022	0.100
615.700	-5.547	0.100
615.800	-2.227	0.100
615.900	-4.601	0.100
616.000	-6.714	0.100
616.100	-2.650	0.100
616.200	-0.656	0.100
616.300	-4.630	0.100
616.400	-5.183	0.100
616.500	-11.605	0.100
616.600	-1.868	0.100
616.700	-6.045	0.100
616.800	2.296	0.100
616.900	-4.638	0.100
617.000	-0.771	0.100
617.100	-6.567	0.100
617.200	-7.425	0.100
617.300	-1.597	0.100
617.400	-6.540	0.100
617.500	-14.491	0.100
617.600	-10.488	0.100
617.700	-5.374	0.100
617.800	-2.020	0.100
617.900	-9.575	0.100
618.000	-9.692	0.100
618.100	-7.941	0.100
618.200	4.695	0.100
618.300	-16.412	0.100
618.400	-4.781	0.100
618.500	-1.883	0.100
618.600	-1.021	0.100
618.700	6.804	0.100
618.800	-1.538	0.100
618.900	-8.840	0.100
619.000	-7.039	0.100
619.100	0.476	0.100
619.200	-7.047	0.100
619.300	-17.350	0.100
619.400	-5.609	0.100
619.500	-12.940	0.100
619.600	0.638	0.100
619.700	-7.070	0.100
619.800	-0.594	0.100
619.900	-3.115	0.100
620.000	-6.396	0.100
620.100	0.371	0.100
620.200	-12.312	0.100
620.300	-2.385	0.100
620.400	-13.387	0.100
620.500	-9.909	0.100
620.600	-2.000	0.100
620.700	-7.572	0.100
620.800	-3.602	0.100
620.900	-6.164	0.100
621.000	-7.204	0.100
621.100	-10.609	0.100
621.200	-4.837	0.100
621.300	-4.215	0.100
621.400	-8.293	0.100
621.500	-8.423	0.100
621.600	-2.989	0.100
621.700	-4.517	0.100
621.800	-15.015	0.100
621.900	-8.077	0.100
622.000	1.379	0.100
622.100	-6.985	0.100
622.200	-1.912	0.100
622.300	-3.448	0.100
622.400	-8.627	0.100
622.500	-11.338	0.100
622.600	-10.421	0.100
622.700	-3.067	0.100
622.800	-10.244	0.100
622.900	5.930	0.100
623.000	-1.034	0.100
623.100	-2.475	0.100
623.200	-1.484	0.100
623.300	-4.381	0.100
623.400	-10.538	0.100
623.500	-3.203	0.100
623.600	-4.351	0.100
623.700	-8.287	0.100
623.800	-12.638	0.100
623.900	2.325	0.100
624.000	-5.120	0.100
624.100	-5.189	0.100
624.200	-7.095	0.100
624.300	-3.362	0.100
624.400	-3.666	0.100
624.500	-4.092	0.100
624.600	-10.832	0.100
624.700	1.713	0.100
624.800	-4.418	0.100
624.900	-4.149	0.100
625.000	-11.753	0.100
625.100	-0.920	0.100
625.200	-0.588	0.100
625.300	-11.411	0.100
625.400	-5.125	0.100
625.500	-16.506	0.100
625.600	9.234	0.100
625.700	-14.942	0.100
625.800	-6.442	0.100
625.900	-6.702	0.100
626.000	-9.242	0.100
626.100	1.833	0.100
626.200	-11.071	0.100
626.300	-8.525	0.100
626.400	-0.698	0.100
626.500	-8.604	0.100
626.600	-8.738	0.100
626.700	1.677	0.100
626.800	-12.309	0.100
626.900	-5.339	0.100
627.000	1.917	0.100
627.100	-6.152	0.100
627.200	-12.202	0.100
627.300	-5.021	0.100
627.400	-2.748	0.100
627.500	-1.941	0.100
627.600	-10.011	0.100
627.700	-0.990	0.100
627.800	-7.363	0.100
627.900	-3.441	0.100
628.000	1.336	0.100
628.100	-6.201	0.100
628.200	-8.434	0.100
628.300	-6.846	0.100
628.400	-5.984	0.100
628.500	-2.541	0.100
628.600	-7.438	0.100
628.700	0.354	0.100
628.800	3.805	0.100
628.900	-5.842	0.100
629.000	-8.242	0.100
629.100	-7.309	0.100
629.200	-3.687	0.100
629.300	-3.767	0.100
629.400	-15.121	0.100
629.500	-10.043	0.100
629.600	-6.164	0.100
629.700	-9.867	0.100
629.800	-8.169	0.100
629.900	1.446	0.100
630.000	4.020	0.100
630.100	4.630	0.100
630.200	3.577	0.100
630.300	2.572	0.100
630.400	3.120	0.100
630.500	1.383	0.100
630.600	13.787	0.100
630.700	14.343	0.100
630.800	10.612	0.100
630.900	6.652	0.100
631.000	17.121	0.100
631.100	15.971	0.100
631.200	6.696	0.100
631.300	10.825	0.100
631.400	12.341	0.100
631.500	5.832	0.100
631.600	21.862	0.100
631.700	16.961	0.100
631.800	-0.616	0.100
631.900	8.945	0.100
632.000	6.620	0.100
632.100	6.568	0.100
632.200	15.308	0.100
632.300	2.394	0.100
632.400	10.249	0.100
632.500	6.867	0.100
632.600	4.864	0.100
632.700	7.639	0.100
632.800	7.021	0.100
632.900	9.653	0.100
633.000	7.926	0.100
633.100	1.758	0.100
633.200	9.339	0.100
633.300	-2.652	0.100
633.400	4.879	0.100
633.500	9.448	0.100
633.600	4.982	0.100
633.700	-4.318	0.100
633.800	6.235	0.100
633.900	5.055	0.100
634.000	3.921	0.100
634.100	6.771	0.100
634.200	-3.995	0.100
634.300	11.856	0.100
634.400	5.591	0.100
634.500	3.318	0.100
634.600	7.632	0.100
634.700	-0.428	0.100
634.800	0.935	0.100
634.900	4.731	0.100
635.000	-3.571	0.100
635.100	6.874	0.100
635.200	-0.443	0.100
635.300	-0.493	0.100
635.400	10.372	0.100
635.500	2.864	0.100
635.600	5.204	0.100
635.700	6.470	0.100
635.800	4.302	0.100
635.900	-0.437	0.100
636.000	3.204	0.100
636.100	5.502	0.100
636.200	7.507	0.100
636.300	-0.145	0.100
636.400	5.506	0.100
636.500	-5.728	0.100
636.600	-9.529	0.100
636.700	-0.489	0.100
636.800	19.830	0.100
636.900	3.589	0.100
637.000	0.696	0.100
637.100	-4.196	0.100
637.200	4.483	0.100
637.300	0.883	0.100
637.400	1.995	0.100
637.500	5.078	0.100
637.600	-4.580	0.100
637.700	5.830	0.100
637.800	5.419	0.100
637.900	6.448	0.100
638.000	1.854	0.100
638.100	0.134	0.100
638.200	5.119	0.100
638.300	-6.031	0.100
638.400	7.128	0.100
638.500	5.219	0.100
638.600	4.169	0.100
638.700	4.306	0.100
638.800	-0.101	0.100
638.900	-3.807	0.100
639.000	-4.972	0.100
639.100	12.082	0.100
639.200	-0.177	0.100
639.300	12.809	0.100
639.400	-8.027	0.100
639.500	7.085	0.100
639.600	-10.404	0.100
639.700	7.408	0.100
639.800	5.614	0.100
639.900	7.665	0.100
640.000	4.285	0.100
640.100	9.308	0.100
640.200	0.018	0.100
640.300	-0.473	0.100
640.400	-0.486	0.100
640.500	-1.123	0.100
640.600	9.161	0.100
640.700	1.743	0.100
640.800	5.405	0.100
640.900	-5.399	0.100
641.000	15.879	0.100
641.100	13.187	0.100
641.200	21.673	0.100
641.300	-8.102	0.100
641.400	5.022	0.100
641.500	1.966	0.100
641.600	-1.831	0.100
641.700	-3.548	0.100
641.800	18.896	0.100
641.900	-4.652	0.100
642.000	5.681	0.100
642.100	15.801	0.100
642.200	17.812	0.100
642.300	5.107	0.100
642.400	-3.043	0.100
642.500	10.307	0.100
642.600	8.539	0.100
642.700	-0.648	0.100
642.800	15.545	0.100
642.900	5.011	0.100
643.000	0.140	0.100
643.100	-1.387	0.100
643.200	-3.882	0.100
643.300	6.718	0.100
643.400	21.065	0.100
643.500	4.259	0.100
643.600	18.895	0.100
643.700	12.184	0.100
643.800	4.153	0.100
643.900	8.091	0.100
644.000	-3.196	0.100
644.100	16.257	0.100
644.200	11.797	0.100
644.300	12.761	0.100
644.400	2.827	0.100
644.500	2.486	0.100
644.600	10.846	0.100
644.700	4.140	0.100
644.800	8.510	0.100
644.900	9.186	0.100
645.000	3.509	0.100
645.100	11.710	0.100
645.200	4.209	0.100
645.300	8.701	0.100
645.400	16.585	0.100
645.500	11.496	0.100
645.600	4.802	0.100
645.700	6.460	0.100
645.800	5.528	0.100
645.900	5.975	0.100
646.000	5.600	0.100
646.100	12.663	0.100
646.200	11.172	0.100
646.300	6.212	0.100
646.400	7.610	0.100
646.500	4.457	0.100
646.600	8.951	0.100
646.700	2.510	0.100
646.800	18.207	0.100
646.900	12.078	0.100
647.000	7.490	0.100
647.100	9.599	0.100
647.200	2.325	0.100
647.300	6.680	0.100
647.400	8.693	0.100
647.500	3.015	0.100
647.600	5.845	0.100
647.700	10.058	0.100
647.800	9.215	0.100
647.900	11.444	0.100
648.000	-1.920	0.100
648.100	8.962	0.100
648.200	-1.311	0.100
648.300	9.645	0.100
648.400	6.828	0.100
648.500	6.066	0.100
648.600	9.727	0.100
648.700	10.540	0.100
648.800	9.421	0.100
648.900	0.351	0.100
649.000	4.849	0.100
649.100	18.466	0.100
649.200	11.708	0.100
649.300	7.125	0.100
649.400	2.926	0.100
649.500	11.648	0.100
649.600	13.029	0.100
649.700	17.414	0.100
649.800	8.060	0.100
649.900	8.936	0.100
650.000	2.550	0.100
650.100	4.953	0.100
650.200	11.793	0.100
650.300	6.197	0.100
650.400	4.773	0.100
650.500	12.565	0.100
650.600	12.208	0.100
650.700	9.296	0.100
650.800	10.786	0.100
650.900	13.548	0.100
651.000	10.097	0.100
651.100	10.730	0.100
651.200	2.747	0.100
651.300	5.111	0.100
651.400	9.258	0.100
651.500	4.232	0.100
651.600	12.453	0.100
651.700	11.388	0.100
651.800	7.349	0.100
651.900	14.404	0.100
652.000	15.581	0.100
652.100	14.445	0.100
652.200	8.098	0.100
652.300	0.764	0.100
652.400	3.727	0.100
652.500	12.793	0.100
652.600	5.217	0.100
652.700	4.520	0.100
652.800	-2.556	0.100
652.900	8.722	0.100
653.000	5.520	0.100
653.100	2.880	0.100
653.200	12.239	0.100
653.300	12.194	0.100
653.400	5.438	0.100
653.500	14.367	0.100
653.600	1.655	0.100
653.700	9.999	0.100
653.800	-1.885	0.100
653.900	10.569	0.100
654.000	9.184	0.100
654.100	10.143	0.100
654.200	3.126	0.100
654.300	-1.520	0.100
654.400	16.692	0.100
654.500	8.793	0.100
654.600	13.860	0.100
654.700	8.849	0.100
654.800	5.551	0.100
654.900	-0.831	0.100
655.000	6.544	0.100
655.100	4.029	0.100
655.200	2.370	0.100
655.300	6.542	0.100
655.400	-1.377	0.100
655.500	7.000	0.100
655.600	9.103	0.100
655.700	10.241	0.100
655.800	21.941	0.100
655.900	3.691	0.100
656.000	1.672	0.100
656.100	13.391	0.100
656.200	8.478	0.100
656.300	8.463	0.100
656.400	7.546	0.100
656.500	25.225	0.100
656.600	5.404	0.100
656.700	4.167	0.100
656.800	-1.500	0.100
656.900	11.099	0.100
657.000	10.457	0.100
657.100	10.763	0.100
657.200	8.028	0.100
657.300	13.302	0.100
657.400	1.077	0.100
657.500	1.584	0.100
657.600	5.415	0.100
657.700	11.264	0.100
657.800	-3.025	0.100
657.900	5.632	0.100
658.000	8.969	0.100
658.100	7.655	0.100
658.200	10.234	0.100
658.300	0.913	0.100
658.400	8.760	0.100
658.500	11.093	0.100
658.600	8.575	0.100
658.700	-1.108	0.100
658.800	5.144	0.100
658.900	14.496	0.100
659.000	2.122	0.100
659.100	7.631	0.100
659.200	2.755	0.100
659.300	18.476	0.100
659.400	-5.108	0.100
659.500	3.274	0.100
659.600	20.013	0.100
659.700	11.681	0.100
659.800	2.862	0.100
659.900	5.906	0.100
660.000	-4.106	0.100
660.100	6.633	0.100
660.200	8.003	0.100
660.300	15.111	0.100
660.400	4.990	0.100
660.500	8.827	0.100
660.600	7.866	0.100
660.700	9.206	0.100
660.800	3.505	0.100
660.900	5.147	0.100
661.000	5.732	0.100
661.100	5.707	0.100
661.200	4.775	0.100
661.300	1.900	0.100
661.400	4.339	0.100
661.500	10.653	0.100
661.600	2.777	0.100
661.700	7.028	0.100
661.800	8.606	0.100
661.900	11.432	0.100
662.000	2.326	0.100
662.100	11.405	0.100
662.200	17.998	0.100
662.300	3.808	0.100
662.400	0.357	0.100
662.500	1.112	0.100
662.600	3.548	0.100
662.700	17.320	0.100
662.800	9.016	0.100
662.900	10.105	0.100
663.000	6.368	0.100
663.100	-2.120	0.100
663.200	8.253	0.100
663.300	5.334	0.100
663.400	0.453	0.100
663.500	5.921	0.100
663.600	14.659	0.100
663.700	18.014	0.100
663.800	4.318	0.100
663.900	13.394	0.100
664.000	-0.191	0.100
664.100	4.942	0.100
664.200	9.754	0.100
664.300	-0.647	0.100
664.400	7.064	0.100
664.500	14.686	0.100
664.600	1.067	0.100
664.700	6.511	0.100
664.800	7.049	0.100
664.900	3.552	0.100
665.000	10.356	0.100
665.100	6.946	0.100
665.200	3.178	0.100
665.300	-0.818	0.100
665.400	15.651	0.100
665.500	11.438	0.100
665.600	19.022	0.100
665.700	3.386	0.100
665.800	5.273	0.100
665.900	10.989	0.100
666.000	4.715	0.100
666.100	2.171	0.100
666.200	11.773	0.100
666.300	6.463	0.100
666.400	9.067	0.100
666.500	1.888	0.100
666.600	6.746	0.100
666.700	15.032	0.100
666.800	10.034	0.100
666.900	5.238	0.100
667.000	11.446	0.100
667.100	-0.792	0.100
667.200	11.644	0.100
667.300	8.073	0.100
667.400	11.033	0.100
667.500	3.177	0.100
667.600	11.696	0.100
667.700	15.469	0.100
667.800	16.538	0.100
667.900	-4.609	0.100
668.000	5.681	0.100
668.100	6.099	0.099
668.200	12.804	0.100
668.300	10.379	0.100
668.400	5.273	0.099
668.500	0.012	0.099
668.600	-0.781	0.099
668.700	5.745	0.099
668.800	12.563	0.099
668.900	-7.356	0.099
669.000	3.452	0.099
669.100	5.219	0.099
669.200	15.631	0.099
669.300	15.519	0.099
669.400	13.911	0.099
669.500	2.290	0.099
669.600	-4.426	0.099
669.700	7.780	0.099
669.800	3.871	0.099
669.900	9.694	0.099
670.000	-0.945	0.099
670.100	10.927	0.099
670.200	15.554	0.099
670.300	1.560	0.099
670.400	0.644	0.099
670.500	4.936	0.099
670.600	10.307	0.099
670.700	0.941	0.099
670.800	8.012	0.099
670.900	6.058	0.099
671.000	6.986	0.099
671.100	8.902	0.099
671.200	5.197	0.099
671.300	9.202	0.099
671.400	11.344	0.099
671.500	9.224	0.099
671.600	9.302	0.099
671.700	8.468	0.099
671.800	3.275	0.099
671.900	4.370	0.099
672.000	2.027	0.099
672.100	6.337	0.099
672.200	8.964	0.099
672.300	7.613	0.099
672.400	4.550	0.099
672.500	1.281	0.099
672.600	4.693	0.099
672.700	7.342	0.099
672.800	-2.702	0.099
672.900	12.495	0.099
673.000	5.660	0.099
673.100	18.513	0.099
673.200	10.511	0.099
673.300	9.101	0.099
673.400	-0.412	0.099
673.500	2.025	0.099
673.600	-7.166	0.099
673.700	8.949	0.099
673.800	0.314	0.099
673.900	7.392	0.099
674.000	10.758	0.099
674.100	5.729	0.099
674.200	13.286	0.099
674.300	6.959	0.099
674.400	3.540	0.099
674.500	8.662	0.099
674.600	10.138	0.099
674.700	5.795	0.099
674.800	12.091	0.099
674.900	12.294	0.099
675.000	4.147	0.099
675.100	-4.070	0.099
675.200	12.889	0.099
675.300	6.435	0.099
675.400	6.192	0.099
675.500	9.048	0.099
675.600	1.424	0.099
675.700	0.339	0.099
675.800	8.102	0.099
675.900	4.641	0.099
676.000	3.969	0.099
676.100	-1.112	0.099
676.200	7.572	0.099
676.300	7.884	0.099
676.400	14.410	0.099
676.500	-3.163	0.099
676.600	14.548	0.099
676.700	6.013	0.099
676.800	8.700	0.099
676.900	-0.109	0.099
677.000	4.828	0.099
677.100	10.061	0.099
677.200	8.035	0.099
677.300	-0.196	0.099
677.400	5.269	0.099
677.500	4.073	0.099
677.600	2.238	0.099
677.700	3.737	0.099
677.800	12.760	0.099
677.900	17.509	0.099
678.000	-0.266	0.099
678.100	0.850	0.099
678.200	16.169	0.099
678.300	2.142	0.099
678.400	6.187	0.099
678.500	1.613	0.099
678.600	16.297	0.099
678.700	-8.623	0.099
678.800	3.276	0.099
678.900	13.333	0.099
679.000	7.290	0.099
679.100	2.060	0.099
679.200	12.371	0.099
679.300	10.244	0.099
679.400	13.368	0.099
679.500	2.474	0.099
679.600	11.777	0.099
679.700	2.993	0.099
679.800	3.412	0.099
679.900	9.207	0.099
680.000	6.388	0.099
680.100	9.808	0.099
680.200	2.805	0.099
680.300	4.182	0.099
680.400	11.235	0.099
680.500	3.780	0.099
680.600	4.253	0.099
680.700	0.782	0.099
680.800	10.728	0.099
680.900	3.021	0.099
681.000	7.093	0.099
681.100	-6.109	0.099
681.200	12.359	0.099
681.300	2.092	0.099
681.400	11.111	0.099
681.500	15.840	0.099
681.600	13.738	0.099
681.700	5.423	0.099
681.800	2.506	0.099
681.900	6.008	0.099
682.000	7.669	0.099
682.100	5.894	0.099
682.200	2.493	0.099
682.300	8.064	0.099
682.400	4.300	0.099
682.500	11.337	0.099
682.600	13.659	0.099
682.700	2.058	0.099
682.800	7.309	0.099
682.900	1.906	0.099
683.000	4.817	0.099
683.100	11.772	0.099
683.200	14.363	0.099
683.300	9.359	0.099
683.400	5.016	0.099
683.500	-0.329	0.099
683.600	6.206	0.099
683.700	5.834	0.099
683.800	12.554	0.099
683.900	12.820	0.099
684.000	0.634	0.099
684.100	-3.896	0.099
684.200	11.696	0.099
684.300	12.275	0.099
684.400	9.443	0.099
684.500	8.697	0.099
684.600	6.984	0.099
684.700	5.017	0.099
684.800	0.683	0.099
684.900	10.889	0.099
685.000	2.317	0.099
685.100	8.752	0.099
685.200	8.353	0.099
685.300	5.270	0.099
685.400	5.863	0.099
685.500	7.602	0.100
685.600	5.735	0.100
685.700	8.258	0.100
685.800	6.451	0.100
685.900	12.157	0.100
686.000	12.146	0.100
686.100	8.294	0.100
686.200	9.584	0.100
686.300	8.797	0.100
686.400	6.924	0.100
686.500	6.918	0.100
686.600	11.333	0.100
686.700	-0.527	0.100
686.800	7.231	0.100
686.900	11.833	0.100
687.000	7.067	0.100
687.100	7.670	0.100
687.200	-0.450	0.100
687.300	8.506	0.100
687.400	6.269	0.100
687.500	13.672	0.100
687.600	6.095	0.100
687.700	4.881	0.100
687.800	10.042	0.100
687.900	-5.132	0.100
688.000	4.388	0.100
688.100	10.217	0.100
688.200	1.787	0.100
688.300	16.864	0.100
688.400	9.035	0.100
688.500	8.765	0.100
688.600	-2.219	0.100
688.700	1.348	0.100
688.800	9.397	0.100
688.900	2.985	0.100
689.000	12.002	0.100
689.100	10.155	0.100
689.200	5.576	0.100
689.300	6.852	0.100
689.400	6.188	0.100
689.500	13.169	0.100
689.600	5.279	0.100
689.700	12.111	0.100
689.800	-5.660	0.100
689.900	1.568	0.100
690.000	3.157	0.100
690.100	-3.161	0.100
690.200	1.627	0.100
690.300	-3.046	0.100
690.400	-12.809	0.100
690.500	0.477	0.100
690.600	-7.432	0.100
690.700	-5.123	0.100
690.800	-10.933	0.100
690.900	-10.724	0.100
691.000	-13.529	0.100
691.100	-16.454	0.100
691.200	-23.204	0.100
691.300	-15.858	0.100
691.400	-12.276	0.100
691.500	-19.176	0.100
691.600	-8.106	0.100
691.700	-17.383	0.100
691.800	-23.596	0.100
691.900	-8.126	0.100
692.000	-15.683	0.100
692.100	-14.657	0.100
692.200	-18.715	0.100
692.300	-14.569	0.100
692.400	-15.449	0.100
692.500	-19.240	0.100
692.600	-16.535	0.100
692.700	-13.658	0.100
692.800	-12.206	0.100
692.900	-17.223	0.100
693.000	-17.732	0.100
693.100	-16.750	0.100
693.200	-21.960	0.100
693.300	-14.375	0.100
693.400	-23.419	0.100
693.500	-14.635	0.100
693.600	-10.289	0.100
693.700	-11.638	0.100
693.800	-15.223	0.100
693.900	-12.203	0.100
694.000	-13.954	0.100
694.100	-11.065	0.100
694.200	-11.409	0.100
694.300	-12.813	0.100
694.400	-9.286	0.100
694.500	-13.430	0.100
694.600	-20.116	0.100
694.700	-15.910	0.100
694.800	-5.564	0.100
694.900	-19.566	0.100
695.000	-1.753	0.100
695.100	-4.355	0.100
695.200	-5.929	0.100
695.300	-13.612	0.100
695.400	-19.650	0.100
695.500	-13.159	0.100
695.600	-10.349	0.100
695.700	-7.178	0.100
695.800	-15.595	0.100
695.900	-5.281	0.100
696.000	-13.822	0.100
696.100	-1.460	0.100
696.200	-11.778	0.100
696.300	-8.187	0.100
696.400	-15.570	0.100
696.500	-1.359	0.100
696.600	-7.756	0.100
696.700	-17.022	0.100
696.800	-8.980	0.100
696.900	-4.552	0.100
697.000	-5.987	0.100
697.100	-6.981	0.100
697.200	-9.425	0.100
697.300	-7.705	0.100
697.400	4.293	0.100
697.500	-6.969	0.100
697.600	-5.314	0.100
697.700	-17.584	0.100
697.800	-6.348	0.100
697.900	-10.194	0.100
698.000	-2.580	0.100
698.100	-14.981	0.100
698.200	3.153	0.100
698.300	-0.178	0.100
698.400	-16.146	0.100
698.500	-7.808	0.100
698.600	-6.055	0.100
698.700	-13.982	0.100
698.800	-13.575	0.100
698.900	-6.318	0.100
699.000	-5.124	0.100
699.100	-15.794	0.100
699.200	-11.387	0.100
699.300	-3.960	0.100
699.400	-5.222	0.100
699.500	-4.209	0.100
699.600	-3.951	0.100
699.700	-11.905	0.100
699.800	-1.735	0.100
699.900	-12.346	0.100
700.000	-14.911	0.100
700.100	-9.392	0.100
700.200	-7.782	0.100
700.300	-14.309	0.100
700.400	-4.509	0.100
700.500	-1.359	0.100
700.600	-5.202	0.100
700.700	-8.669	0.100
700.800	-11.898	0.100
700.900	-10.194	0.100
701.000	-14.431	0.100
701.100	-7.514	0.100
701.200	-3.891	0.100
701.300	-9.698	0.100
701.400	-6.605	0.100
701.500	-6.476	0.100
701.600	-10.821	0.100
701.700	-5.491	0.100
701.800	-5.132	0.100
701.900	-9.270	0.100
702.000	-8.484	0.100
702.100	-4.362	0.100
702.200	-9.611	0.100
702.300	-9.834	0.100
702.400	-9.738	0.100
702.500	-11.049	0.100
702.600	-7.217	0.100
702.700	-8.999	0.100
702.800	-11.151	0.100
702.900	-9.704	0.100
703.000	0.781	0.100
703.100	-1.646	0.100
703.200	-5.443	0.100
703.300	-3.067	0.100
703.400	-13.179	0.100
703.500	-8.801	0.100
703.600	-6.341	0.100
703.700	-2.497	0.100
703.800	-9.476	0.100
703.900	-12.393	0.100
704.000	4.618	0.100
704.100	-12.878	0.100
704.200	-10.116	0.100
704.300	-4.577	0.100
704.400	-3.090	0.100
704.500	-13.100	0.100
704.600	-19.918	0.100
704.700	-9.873	0.100
704.800	-5.494	0.100
704.900	-3.914	0.100
705.000	-9.254	0.100
705.100	-3.787	0.100
705.200	-6.452	0.100
705.300	-10.459	0.100
705.400	-10.474	0.100
705.500	-13.421	0.100
705.600	-3.968	0.100
705.700	-7.631	0.100
705.800	-7.950	0.100
705.900	-9.456	0.100
706.000	-8.894	0.100
706.100	-2.012	0.100
706.200	-6.794	0.100
706.300	-7.136	0.100
706.400	-1.372	0.100
706.500	-7.836	0.100
706.600	-7.389	0.100
706.700	-5.486	0.100
706.800	-10.966	0.100
706.900	-6.439	0.100
707.000	-5.402	0.100
707.100	-15.846	0.100
707.200	-9.371	0.100
707.300	-0.774	0.100
707.400	1.123	0.100
707.500	-1.500	0.100
707.600	-10.156	0.100
707.700	-3.609	0.100
707.800	-10.629	0.100
707.900	-20.269	0.100
708.000	-1.915	0.100
708.100	-15.277	0.100
708.200	-0.327	0.100
708.300	-8.860	0.100
708.400	-1.032	0.100
708.500	-13.779	0.100
708.600	-13.537	0.100
708.700	-12.816	0.100
708.800	-7.234	0.100
708.900	-6.181	0.100
709.000	-3.253	0.100
709.100	-7.347	0.100
709.200	-12.740	0.100
709.300	-13.579	0.100
709.400	1.444	0.100
709.500	-5.119	0.100
709.600	-9.619	0.100
709.700	-4.832	0.100
709.800	0.713	0.100
709.900	-10.593	0.100
710.000	-11.999	0.100
710.100	-1.673	0.100
710.200	-13.528	0.100
710.300	-1.306	0.100
710.400	-16.306	0.100
710.500	-7.919	0.100
710.600	-2.055	0.100
710.700	-13.024	0.100
710.800	-9.657	0.100
710.900	-6.648	0.100
711.000	-10.338	0.100
711.100	-4.793	0.100
711.200	-1.108	0.100
711.300	2.425	0.100
711.400	-15.880	0.100
711.500	-9.728	0.100
711.600	-12.178	0.100
711.700	-14.917	0.100
711.800	-1.171	0.100
711.900	-9.072	0.100
712.000	-9.348	0.100
712.100	-8.131	0.100
712.200	-0.733	0.100
712.300	-9.042	0.100
712.400	-9.748	0.100
712.500	-1.662	0.100
712.600	-8.714	0.100
712.700	-8.562	0.100
712.800	5.556	0.100
712.900	-2.882	0.100
713.000	-8.491	0.100
713.100	-8.533	0.100
713.200	-9.398	0.100
713.300	-10.026	0.100
713.400	-9.607	0.100
713.500	-5.600	0.100
713.600	-8.025	0.100
713.700	-6.695	0.100
713.800	-5.151	0.100
713.900	-7.575	0.100
714.000	-5.711	0.100
714.100	-13.515	0.100
714.200	-3.922	0.100
714.300	2.228	0.100
714.400	-6.794	0.100
714.500	-11.569	0.100
714.600	-12.628	0.100
714.700	-5.516	0.100
714.800	0.721	0.100
714.900	3.697	0.100
715.000	-3.811	0.100
715.100	-14.275	0.100
715.200	-4.130	0.100
715.300	-8.292	0.100
715.400	-12.327	0.100
715.500	-3.170	0.100
715.600	-9.533	0.100
715.700	-6.989	0.100
715.800	-8.089	0.100
715.900	-15.934	0.100
716.000	-2.033	0.100
716.100	-8.352	0.100
716.200	7.305	0.100
716.300	0.838	0.100
716.400	-7.686	0.100
716.500	-6.315	0.100
716.600	-7.633	0.100
716.700	-7.609	0.100
716.800	-11.330	0.100
716.900	-8.153	0.100
717.000	-9.450	0.100
717.100	-6.563	0.100
717.200	-7.023	0.100
717.300	-5.024	0.100
717.400	-6.164	0.100
717.500	-7.760	0.100
717.600	-10.406	0.100
717.700	-19.494	0.100
717.800	-5.793	0.100
717.900	-3.842	0.100
718.000	-3.216	0.100
718.100	-0.309	0.100
718.200	-12.514	0.100
718.300	-8.521	0.100
718.400	-6.002	0.100
718.500	-4.603	0.100
718.600	-9.682	0.100
718.700	-6.846	0.100
718.800	-11.601	0.100
718.900	-15.452	0.100
719.000	-10.910	0.100
719.100	-0.986	0.100
719.200	-4.717	0.100
719.300	-8.981	0.100
719.400	-6.030	0.100
719.500	-0.371	0.100
719.600	-6.949	0.100
719.700	-13.755	0.100
719.800	-19.807	0.100
719.900	-12.263	0.100
720.000	-2.564	0.100
720.100	-4.085	0.100
720.200	-6.802	0.100
720.300	-7.385	0.100
720.400	-5.050	0.100
720.500	-1.217	0.100
720.600	-1.362	0.100
720.700	-12.582	0.100
720.800	-4.413	0.100
720.900	-8.211	0.100
721.000	-9.762	0.100
721.100	-1.198	0.100
721.200	-15.018	0.100
721.300	-18.248	0.100
721.400	-19.020	0.100
721.500	1.211	0.100
721.600	0.345	0.100
721.700	-8.157	0.100
721.800	-4.178	0.100
721.900	-1.362	0.100
722.000	-5.620	0.100
722.100	-11.558	0.100
722.200	-6.000	0.100
722.300	-8.270	0.100
722.400	-0.477	0.100
722.500	-7.633	0.100
722.600	-15.022	0.100
722.700	-2.953	0.100
722.800	-11.360	0.100
722.900	-6.564	0.100
723.000	-4.969	0.100
723.100	-8.453	0.100
723.200	0.382	0.100
723.300	-5.317	0.100
723.400	-8.856	0.100
723.500	-14.536	0.100
723.600	-10.284	0.100
723.700	-6.860	0.100
723.800	2.792	0.100
723.900	-13.959	0.100
724.000	-5.465	0.100
724.100	-11.524	0.100
724.200	0.919	0.100
724.300	-4.814	0.100
724.400	-16.403	0.100
724.500	-5.860	0.100
724.600	-9.189	0.100
724.700	-11.310	0.100
724.800	-3.488	0.100
724.900	-11.099	0.100
725.000	-9.969	0.100
725.100	-2.209	0.100
725.200	-5.715	0.100
725.300	-11.405	0.100
725.400	-2.715	0.100
725.500	-16.902	0.100
725.600	-4.034	0.100
725.700	-4.032	0.100
725.800	-0.979	0.100
725.900	-12.385	0.100
726.000	-10.977	0.100
726.100	1.105	0.100
726.200	-4.155	0.100
726.300	-8.657	0.100
726.400	-8.457	0.100
726.500	-1.247	0.100
726.600	-4.986	0.100
726.700	-7.467	0.100
726.800	-10.306	0.100
726.900	6.773	0.100
727.000	-7.489	0.100
727.100	-6.028	0.100
727.200	-17.397	0.100
727.300	-7.433	0.100
727.400	-9.220	0.100
727.500	2.868	0.100
727.600	-9.701	0.100
727.700	-3.227	0.100
727.800	-7.781	0.100
727.900	0.523	0.100
728.000	0.180	0.100
728.100	-23.261	0.100
728.200	-5.373	0.100
728.300	-8.276	0.100
728.400	-5.112	0.100
728.500	4.310	0.100
728.600	-9.332	0.100
728.700	-8.419	0.100
728.800	-7.274	0.100
728.900	-13.080	0.100
729.000	-1.123	0.100
729.100	-12.526	0.100
729.200	-15.608	0.100
729.300	-7.147	0.100
729.400	-4.068	0.100
729.500	-18.728	0.100
729.600	-0.303	0.099
729.700	-4.892	0.100
729.800	0.316	0.100
729.900	0.194	0.100
730.000	-8.606	0.100
730.100	-8.394	0.100
730.200	-7.242	0.099
730.300	-7.810	0.100
730.400	-9.218	0.100
730.500	-11.240	0.100
730.600	-15.228	0.100
730.700	-3.106	0.100
730.800	-2.361	0.099
730.900	-8.231	0.100
731.000	-3.146	0.099
731.100	-6.726	0.099
731.200	-5.522	0.099
731.300	-8.580	0.099
731.400	-8.837	0.100
731.500	-12.559	0.100
731.600	-2.663	0.099
731.700	-3.413	0.099
731.800	-10.556	0.100
731.900	-7.327	0.099
732.000	-1.467	0.099
732.100	-13.556	0.100
732.200	-3.768	0.099
732.300	-4.247	0.099
732.400	-3.225	0.099
732.500	-3.062	0.099
732.600	-11.640	0.099
732.700	-12.996	0.100
732.800	-2.680	0.099
732.900	-14.151	0.100
733.000	2.007	0.099
733.100	2.001	0.099
733.200	-6.794	0.099
733.300	-11.931	0.099
733.400	-14.242	0.100
733.500	-2.004	0.099
733.600	3.219	0.099
733.700	-6.904	0.100
733.800	-3.913	0.099
733.900	-13.544	0.100
734.000	-3.290	0.099
734.100	-8.451	0.099
734.200	-3.026	0.099
734.300	2.432	0.099
734.400	-7.246	0.100
734.500	-12.347	0.100
734.600	-11.334	0.099
734.700	-6.227	0.100
734.800	-1.110	0.099
734.900	-5.361	0.099
735.000	-0.969	0.099
735.100	-2.293	0.099
735.200	-4.433	0.099
735.300	-7.210	0.099
735.400	-5.773	0.099
735.500	-12.150	0.099
735.600	-6.733	0.099
735.700	-13.593	0.099
735.800	-2.578	0.099
735.900	-7.055	0.099
736.000	-0.991	0.099
736.100	-6.495	0.099
736.200	-10.381	0.099
736.300	-5.060	0.099
736.400	-4.615	0.099
736.500	-9.886	0.099
736.600	-14.775	0.099
736.700	-5.339	0.099
736.800	-3.145	0.099
736.900	-5.973	0.099
737.000	-13.194	0.099
737.100	-14.965	0.099
737.200	-11.781	0.099
737.300	2.161	0.099
737.400	-6.236	0.099
737.500	-15.406	0.099
737.600	-2.682	0.099
737.700	-9.588	0.099
737.800	-5.165	0.099
737.900	-5.304	0.099
738.000	-10.471	0.099
738.100	-5.525	0.099
738.200	-8.959	0.099
738.300	-9.362	0.099
738.400	-8.046	0.099
738.500	5.087	0.099
738.600	-7.139	0.099
738.700	-4.915	0.099
738.800	-12.575	0.099
738.900	-4.554	0.099
739.000	-9.164	0.099
739.100	-16.926	0.099
739.200	-7.087	0.099
739.300	-5.878	0.099
739.400	-8.988	0.099
739.500	-14.150	0.099
739.600	-12.928	0.099
739.700	-7.331	0.099
739.800	-7.601	0.099
739.900	-2.211	0.099
740.000	-4.516	0.099
740.100	2.898	0.099
740.200	-9.364	0.099
740.300	-5.822	0.099
740.400	-7.840	0.099
740.500	-8.215	0.099
740.600	-14.133	0.099
740.700	0.846	0.099
740.800	-0.481	0.099
740.900	-12.991	0.099
741.000	-11.259	0.099
741.100	1.923	0.099
741.200	-12.199	0.099
741.300	-2.251	0.099
741.400	0.734	0.099
741.500	-10.329	0.099
741.600	-7.414	0.099
741.700	-6.824	0.099
741.800	-8.444	0.099
741.900	-3.906	0.099
742.000	-12.442	0.099
742.100	1.193	0.099
742.200	-9.553	0.099
742.300	-14.349	0.099
742.400	-4.214	0.099
742.500	-3.756	0.099
742.600	-7.464	0.099
742.700	-2.303	0.099
742.800	-9.058	0.099
742.900	-4.643	0.099
743.000	-11.258	0.099
743.100	-8.094	0.099
743.200	-2.125	0.099
743.300	-6.002	0.099
743.400	-7.757	0.099
743.500	-0.651	0.099
743.600	-4.810	0.099
743.700	-5.213	0.099
743.800	-7.411	0.099
743.900	-11.697	0.099
744.000	-1.237	0.099
744.100	2.750	0.099
744.200	-3.109	0.099
744.300	-8.494	0.099
744.400	-9.266	0.099
744.500	-13.800	0.099
744.600	8.368	0.099
744.700	-6.930	0.099
744.800	-0.912	0.099
744.900	-4.194	0.099
745.000	-16.629	0.099
745.100	-5.470	0.099
745.200	-6.215	0.099
745.300	-5.167	0.099
745.400	-9.140	0.099
745.500	-1.282	0.099
745.600	-9.737	0.099
745.700	-10.323	0.099
745.800	-11.569	0.099
745.900	5.241	0.099
746.000	-6.756	0.099
746.100	-4.716	0.099
746.200	-8.097	0.099
746.300	-10.205	0.099
746.400	-5.569	0.100
746.500	-11.789	0.099
746.600	-14.522	0.099
746.700	-9.078	0.100
746.800	-10.168	0.100
746.900	0.452	0.100
747.000	1.973	0.100
747.100	4.381	0.099
747.200	-11.179	0.100
747.300	-3.300	0.100
747.400	-10.106	0.100
747.500	-3.604	0.100
747.600	-6.166	0.100
747.700	-8.878	0.100
747.800	0.901	0.100
747.900	-7.042	0.100
748.000	-7.607	0.100
748.100	-3.822	0.100
748.200	-0.079	0.100
748.300	-13.178	0.100
748.400	-9.100	0.100
748.500	-1.708	0.100
748.600	-9.897	0.100
748.700	-3.139	0.100
748.800	-7.146	0.100
748.900	-11.805	0.100
749.000	-2.084	0.100
749.100	-12.793	0.100
749.200	-7.036	0.100
749.300	-13.133	0.100
749.400	-7.064	0.100
749.500	-3.420	0.100
749.600	-16.104	0.100
749.700	-1.847	0.100
749.800	-4.123	0.100
749.900	-2.867	0.100
750.000	-7.346	0.100
750.100	-3.514	0.100
750.200	-0.530	0.100
750.300	-7.695	0.100
750.400	-6.176	0.100
750.500	-13.960	0.100
750.600	-9.832	0.100
750.700	-4.010	0.100
750.800	1.355	0.100
750.900	-9.071	0.100
751.000	-11.433	0.099
751.100	-7.350	0.100
751.200	3.879	0.099
751.300	-7.959	0.100
751.400	2.825	0.099
751.500	-4.940	0.100
751.600	-23.006	0.100
751.700	-2.436	0.100
751.800	-7.382	0.100
751.900	-0.503	0.100
752.000	-16.103	0.100
752.100	-8.808	0.100
752.200	-9.654	0.100
752.300	-7.861	0.100
752.400	-0.390	0.100
752.500	-4.921	0.100
752.600	-3.699	0.100
752.700	-10.363	0.100
752.800	-7.016	0.100
752.900	-5.108	0.100
753.000	-5.351	0.100
753.100	-4.226	0.100
753.200	-17.111	0.100
753.300	-2.205	0.100
753.400	-3.703	0.100
753.500	-5.689	0.100
753.600	-2.073	0.100
753.700	-10.174	0.100
753.800	-15.178	0.100
753.900	-10.933	0.100
754.000	-8.640	0.100
754.100	-1.780	0.100
754.200	-12.758	0.100
754.300	-10.273	0.100
754.400	-0.253	0.100
754.500	-2.805	0.100
754.600	-9.962	0.100
754.700	-10.622	0.100
754.800	-3.239	0.100
754.900	-1.948	0.100
755.000	-12.892	0.100
755.100	0.280	0.100
755.200	-2.488	0.100
755.300	-1.404	0.100
755.400	-0.465	0.100
755.500	-3.049	0.100
755.600	-14.620	0.100
755.700	-7.562	0.100
755.800	-3.547	0.100
755.900	-1.461	0.100
756.000	-5.227	0.100
756.100	-4.716	0.100
756.200	-1.165	0.100
756.300	-11.881	0.100
756.400	3.017	0.100
756.500	-5.203	0.100
756.600	-17.446	0.100
756.700	0.402	0.100
756.800	-10.429	0.100
756.900	-4.190	0.100
757.000	-6.982	0.100
757.100	-4.126	0.100
757.200	-7.518	0.100
757.300	-4.018	0.100
757.400	-7.734	0.100
757.500	3.686	0.100
757.600	-2.154	0.100
757.700	-10.476	0.100
757.800	-8.456	0.100
757.900	-3.242	0.100
758.000	-4.194	0.100
758.100	-5.349	0.100
758.200	-3.570	0.100
758.300	-17.752	0.099
758.400	-10.335	0.099
758.500	-3.581	0.100
758.600	5.190	0.100
758.700	-1.760	0.100
758.800	-14.114	0.099
758.900	1.245	0.100
759.000	-5.727	0.100
759.100	-9.794	0.099
759.200	-4.267	0.099
759.300	-0.444	0.100
759.400	-2.387	0.100
759.500	-7.262	0.099
759.600	-3.634	0.100
759.700	-4.463	0.100
759.800	-14.046	0.099
759.900	-1.099	0.100
760.000	-3.495	0.100
760.100	2.756	0.100
760.200	-6.179	0.099
760.300	-9.022	0.099
760.400	-14.370	0.099
760.500	-13.655	0.099
760.600	-5.773	0.100
760.700	1.453	0.100
760.800	-3.165	0.100
760.900	1.309	0.100
761.000	-7.303	0.099
761.100	-16.045	0.099
761.200	-5.074	0.100
761.300	-6.544	0.099
761.400	-2.215	0.100
761.500	-4.035	0.100
761.600	-6.984	0.099
761.700	-4.843	0.100
761.800	-1.359	0.099
761.900	-4.699	0.099
762.000	-5.035	0.100
762.100	-10.534	0.099
762.200	-9.683	0.099
762.300	-2.603	0.100
762.400	0.937	0.100
762.500	-11.895	0.099
762.600	-6.604	0.099
762.700	-4.101	0.099
762.800	3.433	0.100
762.900	-5.030	0.100
763.000	-7.207	0.099
763.100	-13.922	0.099
763.200	8.495	0.100
763.300	-0.009	0.099
763.400	-9.499	0.099
763.500	-14.367	0.099
763.600	-5.103	0.099
763.700	-12.319	0.099
763.800	-10.057	0.099
763.900	-11.084	0.099
764.000	-1.422	0.099
764.100	-2.860	0.099
764.200	-8.730	0.099
764.300	-8.628	0.099
764.400	0.780	0.099
764.500	-8.837	0.099
764.600	-5.241	0.099
764.700	5.490	0.099
764.800	-10.904	0.099
764.900	-1.940	0.099
765.000	3.342	0.099
765.100	-5.090	0.099
765.200	3.307	0.099
765.300	-15.746	0.099
765.400	-6.351	0.099
765.500	-5.554	0.099
765.600	-7.897	0.099
765.700	3.423	0.099
765.800	-7.231	0.099
765.900	-5.418	0.099
766.000	-15.594	0.099
766.100	-6.754	0.099
766.200	-0.010	0.099
766.300	-4.424	0.099
766.400	-6.151	0.099
766.500	-0.117	0.099
766.600	-3.849	0.099
766.700	-0.812	0.099
766.800	-10.752	0.099
766.900	-15.598	0.099
767.000	-2.393	0.099
767.100	-13.287	0.099
767.200	-2.539	0.099
767.300	-9.390	0.099
767.400	-14.827	0.099
767.500	-5.243	0.099
767.600	-3.303	0.099
767.700	1.937	0.099
767.800	0.022	0.099
767.900	-8.110	0.099
768.000	-11.337	0.099
768.100	-3.552	0.099
768.200	-9.961	0.099
768.300	-16.909	0.099
768.400	-8.601	0.099
768.500	0.581	0.099
768.600	-4.048	0.099
768.700	-11.454	0.099
768.800	-14.881	0.099
768.900	7.870	0.099
769.000	-3.746	0.099
769.100	-4.601	0.099
769.200	-10.181	0.099
769.300	-13.583	0.099
769.400	-6.936	0.099
769.500	-1.988	0.099
769.600	-1.169	0.099
769.700	-5.852	0.099
769.800	-4.483	0.099
769.900	-3.189	0.099
770.000	-5.132	0.099
770.100	1.099	0.099
770.200	-5.960	0.099
770.300	-10.927	0.099
770.400	-0.405	0.099
770.500	-10.644	0.099
770.600	-10.474	0.099
770.700	-14.830	0.099
770.800	-3.992	0.099
770.900	3.337	0.099
771.000	-5.522	0.099
771.100	-9.686	0.099
771.200	-9.376	0.099
771.300	-3.778	0.099
771.400	1.697	0.099
771.500	-3.738	0.099
771.600	-9.594	0.099
771.700	-11.175	0.099
771.800	-10.684	0.099
771.900	0.346	0.099
772.000	-0.281	0.099
772.100	-13.756	0.099
772.200	-8.917	0.099
772.300	-4.402	0.099
772.400	-6.030	0.099
772.500	-9.364	0.099
772.600	3.018	0.099
772.700	-1.811	0.099
772.800	-7.389	0.099
772.900	-7.376	0.099
773.000	-14.744	0.099
773.100	1.240	0.099
773.200	-9.043	0.099
773.300	-0.615	0.099
773.400	-12.801	0.099
773.500	-10.552	0.099
773.600	-5.966	0.099
773.700	-4.933	0.099
773.800	-4.318	0.099
773.900	-5.775	0.099
774.000	-5.083	0.099
774.100	-3.373	0.099
774.200	-6.872	0.099
774.300	-7.461	0.099
774.400	-4.298	0.099
774.500	-2.971	0.099
774.600	-4.211	0.099
774.700	1.712	0.099
774.800	-7.028	0.099
774.900	-3.745	0.099
775.000	-5.870	0.100
775.100	-5.806	0.100
775.200	-13.283	0.100
775.300	-2.464	0.099
775.400	-4.980	0.100
775.500	-9.993	0.100
775.600	-3.330	0.100
775.700	0.704	0.100
775.800	-4.596	0.100
775.900	-5.553	0.100
776.000	-11.824	0.100
776.100	-4.308	0.100
776.200	-8.402	0.100
776.300	-7.297	0.100
776.400	-6.897	0.100
776.500	-13.348	0.100
776.600	3.805	0.100
776.700	-6.694	0.100
776.800	-2.230	0.100
776.900	-4.391	0.100
777.000	-3.195	0.100
777.100	-4.822	0.100
777.200	-11.720	0.100
777.300	-0.041	0.100
777.400	5.797	0.100
777.500	3.079	0.100
777.600	-8.028	0.100
777.700	-9.436	0.100
777.800	-10.048	0.100
777.900	-3.496	0.100
778.000	0.821	0.100
778.100	-5.147	0.100
778.200	1.328	0.100
778.300	-3.994	0.100
778.400	-7.400	0.100
778.500	-8.052	0.100
778.600	-7.831	0.100
778.700	-3.437	0.100
778.800	-4.007	0.100
778.900	-4.036	0.100
779.000	-8.282	0.100
779.100	-7.648	0.100
779.200	-4.469	0.100
779.300	-7.302	0.100
779.400	-8.564	0.100
779.500	-7.615	0.100
779.600	-7.344	0.100
779.700	-6.232	0.100
779.800	-5.568	0.100
779.900	-8.978	0.100
780.000	7.834	0.100
780.100	5.535	0.100
780.200	1.633	0.100
780.300	-1.094	0.100
780.400	-8.882	0.100
780.500	-1.204	0.100
780.600	13.647	0.100
780.700	6.548	0.100
780.800	14.529	0.100
780.900	10.954	0.100
781.000	13.315	0.100
781.100	9.874	0.100
781.200	11.187	0.100
781.300	19.151	0.100
781.400	3.108	0.100
781.500	10.776	0.100
781.600	7.219	0.100
781.700	8.208	0.100
781.800	10.784	0.100
781.900	5.192	0.100
782.000	11.669	0.100
782.100	8.156	0.100
782.200	16.203	0.100
782.300	13.207	0.100
782.400	11.684	0.100
782.500	13.843	0.100
782.600	6.895	0.100
782.700	1.368	0.100
782.800	11.848	0.100
782.900	2.993	0.100
783.000	7.566	0.100
783.100	1.178	0.100
783.200	13.213	0.100
783.300	2.177	0.100
783.400	12.418	0.100
783.500	-1.651	0.100
783.600	15.157	0.100
783.700	16.228	0.100
783.800	8.779	0.100
783.900	3.794	0.100
784.000	8.690	0.100
784.100	7.697	0.100
784.200	-4.896	0.100
784.300	2.536	0.100
784.400	7.234	0.100
784.500	-2.570	0.100
784.600	9.384	0.100
784.700	5.478	0.100
784.800	-2.166	0.100
784.900	0.146	0.100
785.000	-4.090	0.100
785.100	10.149	0.100
785.200	9.606	0.100
785.300	-4.234	0.100
785.400	-8.363	0.100
785.500	9.003	0.100
785.600	-4.514	0.100
785.700	-0.487	0.100
785.800	-0.073	0.100
785.900	1.642	0.099
786.000	-6.697	0.099
786.100	9.451	0.099
786.200	9.199	0.099
786.300	4.182	0.099
786.400	-2.663	0.099
786.500	4.243	0.099
786.600	2.125	0.099
786.700	3.060	0.099
786.800	-7.186	0.099
786.900	-6.564	0.099
787.000	-0.495	0.099
787.100	4.998	0.099
787.200	-1.303	0.099
787.300	6.173	0.099
787.400	10.157	0.099
787.500	-2.585	0.099
787.600	4.249	0.099
787.700	2.542	0.099
787.800	8.570	0.099
787.900	10.143	0.099
788.000	0.579	0.099
788.100	-0.045	0.099
788.200	6.929	0.099
788.300	10.996	0.099
788.400	12.227	0.099
788.500	1.053	0.099
788.600	0.766	0.099
788.700	0.707	0.099
788.800	1.100	0.099
788.900	-7.710	0.099
789.000	-0.135	0.099
789.100	6.844	0.099
789.200	2.963	0.099
789.300	7.736	0.099
789.400	-6.276	0.099
789.500	6.795	0.099
789.600	10.987	0.099
789.700	6.719	0.099
789.800	5.295	0.099
789.900	4.065	0.099
790.000	6.802	0.099
790.100	10.846	0.099
790.200	3.572	0.099
790.300	2.646	0.099
790.400	2.939	0.099
790.500	0.584	0.099
790.600	-3.669	0.099
790.700	7.092	0.099
790.800	4.663	0.099
790.900	5.305	0.099
791.000	2.965	0.099
791.100	-5.839	0.099
791.200	2.627	0.099
791.300	-0.912	0.099
791.400	8.786	0.099
791.500	7.089	0.099
791.600	11.327	0.099
791.700	3.005	0.099
791.800	10.895	0.099
791.900	5.261	0.099
792.000	1.958	0.099
792.100	6.621	0.099
792.200	6.922	0.099
792.300	0.730	0.099
792.400	-3.854	0.099
792.500	12.131	0.099
792.600	8.594	0.099
792.700	5.129	0.099
792.800	4.973	0.099
792.900	7.628	0.099
793.000	6.340	0.099
793.100	14.765	0.099
793.200	5.838	0.099
793.300	3.300	0.099
793.400	-1.875	0.099
793.500	10.778	0.099
793.600	2.997	0.099
793.700	4.532	0.099
793.800	4.910	0.099
793.900	10.781	0.099
794.000	5.387	0.099
794.100	1.456	0.099
794.200	15.077	0.099
794.300	11.295	0.099
794.400	2.469	0.099
794.500	3.781	0.099
794.600	-2.685	0.099
794.700	1.315	0.099
794.800	12.958	0.099
794.900	9.959	0.099
795.000	10.007	0.099
795.100	6.787	0.099
795.200	7.642	0.099
795.300	3.073	0.099
795.400	6.775	0.099
795.500	8.955	0.099
795.600	6.823	0.099
795.700	1.567	0.099
795.800	8.929	0.099
795.900	12.242	0.099
796.000	9.327	0.099
796.100	5.990	0.099
796.200	4.644	0.099
796.300	16.023	0.099
796.400	7.981	0.099
796.500	13.192	0.099
796.600	15.690	0.099
796.700	7.619	0.099
796.800	1.477	0.099
796.900	2.718	0.099
797.000	0.301	0.099
797.100	9.908	0.099
797.200	11.132	0.099
797.300	8.288	0.099
797.400	13.206	0.099
797.500	2.798	0.099
797.600	7.227	0.099
797.700	15.798	0.099
797.800	14.465	0.099
797.900	5.877	0.099
798.000	8.170	0.099
798.100	3.975	0.099
798.200	0.678	0.099
798.300	8.244	0.099
798.400	11.605	0.099
798.500	2.491	0.099
798.600	1.215	0.099
798.700	12.078	0.099
798.800	5.190	0.099
798.900	16.594	0.099
799.000	8.513	0.099
799.100	5.237	0.099
799.200	-4.382	0.099
799.300	14.673	0.099
799.400	15.032	0.099
799.500	11.299	0.099
799.600	8.126	0.099
799.700	9.752	0.099
799.800	9.222	0.099
799.900	2.315	0.099
800.000	2.073	0.099
