time /s	I /nA	E /V
0.100	-8.157	0.100
0.200	-8.774	0.100
0.300	-1.673	0.100
0.400	-5.714	0.100
0.500	-3.532	0.100
0.600	-11.557	0.100
0.700	-15.031	0.100
0.800	-10.748	0.100
0.900	-13.134	0.100
1.000	-10.419	0.100
1.100	-8.193	0.100
1.200	-8.334	0.100
1.300	-7.844	0.100
1.400	-1.881	0.100
1.500	-7.288	0.100
1.600	-15.782	0.100
1.700	-14.495	0.100
1.800	-12.305	0.100
1.900	-6.743	0.100
2.000	-15.818	0.100
2.100	4.281	0.100
2.200	-9.975	0.100
2.300	-12.690	0.100
2.400	-4.033	0.100
2.500	-6.941	0.100
2.600	-10.755	0.100
2.700	-13.832	0.100
2.800	-4.232	0.100
2.900	-1.930	0.100
3.000	-5.453	0.100
3.100	-5.214	0.100
3.200	-8.595	0.100
3.300	-5.797	0.100
3.400	-9.729	0.100
3.500	-8.222	0.100
3.600	-2.294	0.100
3.700	-2.806	0.100
3.800	-12.274	0.100
3.900	-7.933	0.100
4.000	-6.986	0.100
4.100	-6.245	0.100
4.200	-7.957	0.100
4.300	-4.611	0.100
4.400	-14.866	0.100
4.500	-10.354	0.100
4.600	-8.600	0.100
4.700	-0.094	0.100
4.800	1.623	0.100
4.900	-2.871	0.100
5.000	-9.150	0.100
5.100	-12.534	0.100
5.200	-11.200	0.100
5.300	-4.069	0.100
5.400	-2.992	0.100
5.500	-3.607	0.100
5.600	-9.989	0.100
5.700	-14.802	0.100
5.800	-6.065	0.100
5.900	-10.036	0.100
6.000	2.990	0.100
6.100	-7.909	0.100
6.200	-6.671	0.100
6.300	-7.818	0.100
6.400	-13.650	0.100
6.500	-0.861	0.100
6.600	-12.907	0.100
6.700	-5.423	0.100
6.800	-2.294	0.100
6.900	-15.291	0.100
7.000	-13.988	0.100
7.100	-13.700	0.100
7.200	-11.769	0.100
7.300	-9.630	0.100
7.400	-11.765	0.100
7.500	4.657	0.100
7.600	-5.473	0.100
7.700	-5.685	0.100
7.800	-5.328	0.100
7.900	-4.013	0.100
8.000	-15.491	0.100
8.100	-5.508	0.100
8.200	-19.692	0.100
8.300	-5.819	0.100
8.400	-2.082	0.100
8.500	-10.105	0.100
8.600	-2.077	0.100
8.700	-10.191	0.100
8.800	-6.962	0.100
8.900	-6.153	0.100
9.000	-6.350	0.100
9.100	-3.790	0.100
9.200	-2.819	0.100
9.300	-3.523	0.100
9.400	-11.240	0.100
9.500	-4.367	0.100
9.600	-8.346	0.100
9.700	-9.920	0.100
9.800	-2.920	0.100
9.900	-15.099	0.100
10.000	-15.483	0.100
10.100	-8.309	0.100
10.200	-4.919	0.100
10.300	-8.456	0.100
10.400	-3.284	0.100
10.500	-15.090	0.100
10.600	-4.845	0.100
10.700	-1.886	0.100
10.800	-4.462	0.100
10.900	-8.123	0.100
11.000	1.357	0.100
11.100	-8.386	0.100
11.200	-10.912	0.100
11.300	-9.562	0.100
11.400	-6.815	0.100
11.500	-4.340	0.100
11.600	-8.370	0.100
11.700	-3.065	0.100
11.800	-16.699	0.100
11.900	-6.449	0.100
12.000	-0.954	0.100
12.100	-6.266	0.100
12.200	-15.158	0.100
12.300	4.176	0.100
12.400	-1.722	0.100
12.500	-22.226	0.100
12.600	-14.448	0.100
12.700	-8.446	0.100
12.800	-9.328	0.100
12.900	-11.655	0.100
13.000	-4.582	0.100
13.100	-5.139	0.100
13.200	-0.506	0.100
13.300	-3.856	0.100
13.400	-12.814	0.100
13.500	-6.492	0.100
13.600	-7.922	0.100
13.700	-6.147	0.100
13.800	-11.736	0.100
13.900	-6.687	0.100
14.000	-10.656	0.100
14.100	-10.399	0.100
14.200	-4.039	0.100
14.300	-14.154	0.100
14.400	0.801	0.100
14.500	-6.205	0.100
14.600	-8.696	0.100
14.700	-10.090	0.100
14.800	-3.295	0.100
14.900	-5.395	0.100
15.000	-5.163	0.100
15.100	-21.608	0.100
15.200	-7.607	0.100
15.300	-7.369	0.100
15.400	1.908	0.100
15.500	-5.008	0.100
15.600	-0.500	0.100
15.700	-8.109	0.100
15.800	-7.029	0.100
15.900	-13.559	0.100
16.000	-2.103	0.100
16.100	-5.194	0.100
16.200	-9.008	0.100
16.300	-7.015	0.100
16.400	-5.153	0.100
16.500	-3.634	0.100
16.600	-9.686	0.100
16.700	-4.426	0.100
16.800	-11.618	0.100
16.900	-4.354	0.100
17.000	-8.020	0.100
17.100	-2.470	0.100
17.200	-11.940	0.100
17.300	-13.324	0.100
17.400	-5.933	0.100
17.500	-12.449	0.100
17.600	-10.051	0.100
17.700	-6.216	0.100
17.800	1.008	0.100
17.900	-3.848	0.100
18.000	-10.531	0.100
18.100	-7.843	0.100
18.200	-7.973	0.100
18.300	-7.783	0.100
18.400	1.157	0.100
18.500	-8.322	0.100
18.600	-8.340	0.100
18.700	-10.741	0.100
18.800	-13.040	0.100
18.900	1.227	0.100
19.000	-7.918	0.100
19.100	-6.342	0.100
19.200	-7.935	0.100
19.300	-8.916	0.100
19.400	-5.698	0.100
19.500	-15.196	0.100
19.600	-15.087	0.100
19.700	-1.661	0.100
19.800	-4.700	0.100
19.900	3.574	0.100
20.000	-1.261	0.100
20.100	0.067	0.100
20.200	-2.036	0.100
20.300	-1.321	0.100
20.400	-5.525	0.100
20.500	-14.255	0.100
20.600	-11.825	0.100
20.700	-11.919	0.100
20.800	-6.051	0.100
20.900	-8.726	0.100
21.000	-0.045	0.100
21.100	-12.347	0.100
21.200	-8.506	0.100
21.300	-7.694	0.100
21.400	0.335	0.100
21.500	-8.732	0.100
21.600	-12.060	0.100
21.700	-4.328	0.100
21.800	-11.421	0.100
21.900	-10.950	0.100
22.000	-5.872	0.100
22.100	-5.380	0.100
22.200	0.137	0.100
22.300	-3.003	0.100
22.400	-3.676	0.100
22.500	-2.527	0.100
22.600	-14.862	0.100
22.700	-8.543	0.100
22.800	-10.688	0.100
22.900	-2.860	0.100
23.000	2.113	0.100
23.100	-5.690	0.100
23.200	-5.332	0.100
23.300	-9.917	0.100
23.400	-3.331	0.100
23.500	-10.858	0.100
23.600	-14.575	0.100
23.700	-2.765	0.100
23.800	-20.882	0.100
23.900	0.316	0.100
24.000	-7.022	0.100
24.100	-6.262	0.100
24.200	-8.315	0.100
24.300	-4.736	0.100
24.400	-8.802	0.100
24.500	-11.142	0.100
24.600	2.354	0.100
24.700	-10.131	0.100
24.800	-6.562	0.100
24.900	-4.886	0.100
25.000	-11.750	0.100
25.100	3.405	0.100
25.200	-5.768	0.100
25.300	-6.844	0.100
25.400	-4.581	0.100
25.500	-4.532	0.100
25.600	-6.340	0.100
25.700	-7.563	0.100
25.800	-12.965	0.100
25.900	-5.026	0.100
26.000	-5.148	0.100
26.100	-3.640	0.100
26.200	-0.647	0.100
26.300	-13.168	0.100
26.400	-6.851	0.100
26.500	-7.787	0.100
26.600	-18.575	0.100
26.700	-9.117	0.100
26.800	1.413	0.100
26.900	-8.569	0.100
27.000	2.303	0.100
27.100	-5.812	0.100
27.200	-1.263	0.100
27.300	-8.002	0.100
27.400	-1.907	0.100
27.500	-5.011	0.100
27.600	-2.905	0.100
27.700	-11.226	0.100
27.800	-6.062	0.100
27.900	-9.784	0.100
28.000	-9.967	0.100
28.100	2.067	0.100
28.200	-4.439	0.100
28.300	0.315	0.100
28.400	-12.855	0.100
28.500	-4.658	0.100
28.600	-3.244	0.100
28.700	-5.385	0.100
28.800	-7.235	0.100
28.900	-16.007	0.100
29.000	-7.116	0.100
29.100	-7.472	0.100
29.200	-10.067	0.100
29.300	-16.033	0.100
29.400	-10.918	0.100
29.500	-2.628	0.100
29.600	0.788	0.100
29.700	-5.116	0.100
29.800	-5.239	0.100
29.900	-6.069	0.100
30.000	-3.109	0.100
30.100	4.132	0.100
30.200	-7.991	0.100
30.300	-3.935	0.100
30.400	0.987	0.100
30.500	-4.174	0.100
30.600	5.563	0.100
30.700	-3.758	0.100
30.800	-0.096	0.100
30.900	5.827	0.100
31.000	7.060	0.100
31.100	9.273	0.100
31.200	11.097	0.100
31.300	9.908	0.100
31.400	8.979	0.100
31.500	4.990	0.100
31.600	13.093	0.100
31.700	11.287	0.100
31.800	7.480	0.100
31.900	10.138	0.100
32.000	13.274	0.100
32.100	13.370	0.100
32.200	14.639	0.100
32.300	17.130	0.100
32.400	10.961	0.100
32.500	8.062	0.100
32.600	-0.982	0.100
32.700	20.866	0.100
32.800	13.179	0.100
32.900	2.123	0.100
33.000	9.883	0.100
33.100	10.018	0.100
33.200	5.334	0.100
33.300	12.091	0.100
33.400	8.530	0.100
33.500	12.739	0.100
33.600	9.844	0.100
33.700	11.542	0.100
33.800	11.612	0.100
33.900	8.362	0.100
34.000	3.650	0.100
34.100	6.295	0.100
34.200	10.217	0.100
34.300	5.246	0.100
34.400	3.534	0.100
34.500	5.810	0.100
34.600	7.867	0.100
34.700	-0.738	0.100
34.800	9.672	0.100
34.900	5.292	0.100
35.000	5.510	0.100
35.100	5.129	0.100
35.200	-2.235	0.100
35.300	0.768	0.100
35.400	5.905	0.100
35.500	9.694	0.100
35.600	8.588	0.100
35.700	6.881	0.100
35.800	4.868	0.100
35.900	4.150	0.100
36.000	4.881	0.100
36.100	3.805	0.100
36.200	-0.562	0.100
36.300	6.842	0.100
36.400	12.085	0.100
36.500	8.931	0.100
36.600	6.436	0.100
36.700	9.959	0.100
36.800	-1.047	0.100
36.900	4.344	0.100
37.000	2.804	0.100
37.100	6.873	0.100
37.200	7.237	0.100
37.300	14.517	0.100
37.400	8.074	0.100
37.500	9.597	0.100
37.600	5.273	0.100
37.700	12.521	0.100
37.800	4.524	0.100
37.900	2.078	0.100
38.000	3.482	0.100
38.100	5.729	0.100
38.200	3.239	0.100
38.300	9.391	0.100
38.400	12.099	0.100
38.500	11.363	0.100
38.600	6.169	0.100
38.700	2.362	0.100
38.800	8.738	0.100
38.900	4.412	0.100
39.000	1.169	0.100
39.100	17.372	0.100
39.200	2.020	0.100
39.300	13.169	0.100
39.400	-3.144	0.100
39.500	13.887	0.100
39.600	5.737	0.100
39.700	9.817	0.100
39.800	1.929	0.100
39.900	0.350	0.100
40.000	12.238	0.100
40.100	8.386	0.100
40.200	3.432	0.100
40.300	17.656	0.100
40.400	8.235	0.100
40.500	6.816	0.100
40.600	4.966	0.100
40.700	11.262	0.100
40.800	2.840	0.100
40.900	4.514	0.100
41.000	7.764	0.100
41.100	3.922	0.100
41.200	9.511	0.100
41.300	2.018	0.100
41.400	12.884	0.100
41.500	4.251	0.100
41.600	13.494	0.100
41.700	5.856	0.100
41.800	7.723	0.100
41.900	4.574	0.100
42.000	5.751	0.100
42.100	11.853	0.100
42.200	8.135	0.100
42.300	2.416	0.100
42.400	0.107	0.100
42.500	14.344	0.100
42.600	12.575	0.100
42.700	9.984	0.100
42.800	2.013	0.100
42.900	9.106	0.100
43.000	5.490	0.100
43.100	11.022	0.100
43.200	4.559	0.100
43.300	14.763	0.100
43.400	13.345	0.100
43.500	7.623	0.100
43.600	9.802	0.100
43.700	3.385	0.100
43.800	13.459	0.100
43.900	3.001	0.100
44.000	22.992	0.100
44.100	6.846	0.100
44.200	3.261	0.100
44.300	18.473	0.100
44.400	15.322	0.100
44.500	10.348	0.100
44.600	6.825	0.100
44.700	9.461	0.100
44.800	4.011	0.100
44.900	-1.856	0.100
45.000	20.131	0.100
45.100	10.697	0.100
45.200	3.954	0.100
45.300	11.051	0.100
45.400	4.485	0.100
45.500	8.986	0.100
45.600	3.341	0.100
45.700	13.549	0.100
45.800	4.370	0.100
45.900	2.064	0.100
46.000	3.979	0.100
46.100	8.713	0.100
46.200	5.618	0.100
46.300	-1.222	0.100
46.400	9.975	0.100
46.500	2.347	0.100
46.600	6.808	0.100
46.700	12.389	0.100
46.800	14.577	0.100
46.900	7.505	0.100
47.000	8.460	0.100
47.100	7.924	0.100
47.200	6.592	0.100
47.300	4.850	0.100
47.400	11.380	0.100
47.500	12.341	0.100
47.600	6.601	0.100
47.700	5.565	0.100
47.800	6.121	0.100
47.900	3.821	0.100
48.000	12.328	0.100
48.100	5.948	0.100
48.200	9.462	0.100
48.300	10.771	0.100
48.400	8.701	0.100
48.500	5.287	0.100
48.600	5.754	0.100
48.700	8.415	0.100
48.800	15.989	0.100
48.900	17.796	0.100
49.000	3.883	0.100
49.100	1.981	0.100
49.200	8.858	0.100
49.300	3.053	0.100
49.400	14.562	0.100
49.500	12.331	0.100
49.600	12.512	0.100
49.700	0.534	0.100
49.800	8.233	0.100
49.900	11.851	0.100
50.000	3.630	0.100
50.100	8.400	0.100
50.200	19.473	0.100
50.300	0.308	0.100
50.400	1.136	0.100
50.500	18.408	0.100
50.600	11.850	0.100
50.700	15.259	0.100
50.800	18.316	0.100
50.900	-0.500	0.100
51.000	3.090	0.100
51.100	9.268	0.100
51.200	15.409	0.100
51.300	16.969	0.100
51.400	11.757	0.100
51.500	9.281	0.100
51.600	2.582	0.100
51.700	12.900	0.100
51.800	5.061	0.100
51.900	12.582	0.100
52.000	6.453	0.100
52.100	12.949	0.100
52.200	6.805	0.100
52.300	4.088	0.100
52.400	13.354	0.100
52.500	-2.400	0.100
52.600	13.116	0.100
52.700	9.355	0.100
52.800	10.801	0.100
52.900	13.503	0.100
53.000	1.209	0.100
53.100	9.178	0.100
53.200	10.632	0.100
53.300	9.898	0.100
53.400	4.348	0.100
53.500	5.483	0.100
53.600	6.004	0.100
53.700	10.142	0.100
53.800	17.681	0.100
53.900	16.481	0.100
54.000	10.039	0.100
54.100	4.729	0.100
54.200	3.927	0.100
54.300	2.052	0.100
54.400	4.279	0.100
54.500	15.166	0.100
54.600	10.693	0.100
54.700	0.087	0.100
54.800	11.146	0.100
54.900	10.366	0.100
55.000	11.604	0.100
55.100	8.687	0.100
55.200	0.693	0.100
55.300	4.258	0.100
55.400	20.798	0.100
55.500	15.048	0.100
55.600	0.671	0.100
55.700	5.610	0.100
55.800	14.830	0.100
55.900	13.528	0.100
56.000	13.316	0.100
56.100	12.058	0.100
56.200	5.385	0.100
56.300	-0.932	0.100
56.400	8.115	0.100
56.500	17.085	0.100
56.600	14.280	0.100
56.700	3.492	0.100
56.800	4.799	0.100
56.900	7.842	0.100
57.000	15.319	0.100
57.100	8.108	0.100
57.200	7.481	0.100
57.300	5.986	0.100
57.400	7.084	0.100
57.500	8.213	0.100
57.600	6.883	0.100
57.700	7.022	0.100
57.800	10.718	0.100
57.900	8.090	0.100
58.000	9.097	0.100
58.100	8.986	0.100
58.200	12.674	0.100
58.300	9.694	0.100
58.400	9.419	0.100
58.500	9.698	0.100
58.600	6.328	0.100
58.700	2.653	0.100
58.800	7.003	0.100
58.900	-3.687	0.100
59.000	12.574	0.100
59.100	10.749	0.100
59.200	12.616	0.100
59.300	9.419	0.100
59.400	14.986	0.100
59.500	12.151	0.100
59.600	11.032	0.100
59.700	12.274	0.100
59.800	0.326	0.100
59.900	13.422	0.100
60.000	15.083	0.100
60.100	1.124	0.100
60.200	6.576	0.100
60.300	11.145	0.100
60.400	22.782	0.100
60.500	8.960	0.100
60.600	14.899	0.100
60.700	5.134	0.100
60.800	-0.706	0.100
60.900	8.082	0.100
61.000	14.307	0.100
61.100	4.618	0.100
61.200	12.666	0.100
61.300	11.014	0.100
61.400	11.404	0.100
61.500	12.441	0.100
61.600	7.064	0.100
61.700	9.822	0.100
61.800	11.855	0.100
61.900	11.617	0.100
62.000	13.375	0.100
62.100	11.992	0.100
62.200	9.962	0.100
62.300	10.078	0.100
62.400	4.485	0.100
62.500	20.878	0.100
62.600	10.050	0.100
62.700	5.164	0.100
62.800	9.631	0.100
62.900	20.584	0.100
63.000	3.948	0.100
63.100	8.042	0.100
63.200	7.003	0.100
63.300	14.014	0.100
63.400	13.111	0.100
63.500	9.412	0.100
63.600	6.659	0.100
63.700	5.859	0.100
63.800	9.062	0.100
63.900	-1.092	0.100
64.000	14.252	0.100
64.100	14.109	0.100
64.200	8.995	0.100
64.300	11.119	0.100
64.400	7.275	0.100
64.500	-0.387	0.100
64.600	-7.658	0.100
64.700	12.068	0.100
64.800	5.634	0.100
64.900	6.622	0.100
65.000	17.643	0.100
65.100	8.071	0.100
65.200	8.933	0.100
65.300	-5.409	0.100
65.400	17.622	0.100
65.500	9.669	0.100
65.600	0.924	0.100
65.700	13.383	0.100
65.800	12.621	0.100
65.900	6.843	0.100
66.000	15.839	0.100
66.100	9.540	0.100
66.200	4.998	0.100
66.300	12.096	0.100
66.400	14.311	0.100
66.500	6.232	0.100
66.600	-0.023	0.100
66.700	12.383	0.100
66.800	5.042	0.100
66.900	11.387	0.100
67.000	13.803	0.100
67.100	7.969	0.100
67.200	1.801	0.100
67.300	3.061	0.100
67.400	9.203	0.100
67.500	7.927	0.100
67.600	11.571	0.100
67.700	6.395	0.100
67.800	11.037	0.100
67.900	-2.773	0.100
68.000	12.568	0.100
68.100	11.098	0.100
68.200	3.514	0.100
68.300	12.385	0.100
68.400	5.324	0.100
68.500	20.283	0.100
68.600	7.746	0.100
68.700	15.703	0.100
68.800	6.204	0.100
68.900	8.967	0.100
69.000	11.798	0.100
69.100	-0.408	0.100
69.200	10.867	0.100
69.300	4.178	0.100
69.400	12.925	0.100
69.500	13.771	0.100
69.600	9.924	0.100
69.700	8.229	0.100
69.800	6.859	0.100
69.900	3.938	0.100
70.000	4.488	0.100
70.100	4.467	0.100
70.200	11.750	0.100
70.300	2.708	0.100
70.400	10.792	0.100
70.500	14.440	0.100
70.600	1.282	0.100
70.700	16.700	0.100
70.800	-1.150	0.100
70.900	5.987	0.100
71.000	17.674	0.100
71.100	1.142	0.100
71.200	7.255	0.100
71.300	15.503	0.100
71.400	11.107	0.100
71.500	12.633	0.100
71.600	3.734	0.100
71.700	8.424	0.100
71.800	8.955	0.100
71.900	12.742	0.100
72.000	9.978	0.100
72.100	8.983	0.100
72.200	7.394	0.100
72.300	3.689	0.100
72.400	10.347	0.100
72.500	12.888	0.100
72.600	11.022	0.100
72.700	4.188	0.100
72.800	6.806	0.100
72.900	11.416	0.100
73.000	1.528	0.100
73.100	10.467	0.100
73.200	10.437	0.100
73.300	5.293	0.100
73.400	9.632	0.100
73.500	-0.606	0.100
73.600	10.981	0.100
73.700	14.392	0.100
73.800	-3.711	0.100
73.900	11.435	0.100
74.000	7.101	0.100
74.100	7.286	0.100
74.200	6.657	0.100
74.300	11.526	0.100
74.400	9.918	0.100
74.500	10.212	0.100
74.600	9.905	0.100
74.700	9.381	0.100
74.800	4.457	0.100
74.900	0.435	0.100
75.000	16.237	0.100
75.100	13.318	0.100
75.200	-4.022	0.100
75.300	0.115	0.100
75.400	-2.570	0.100
75.500	0.604	0.100
75.600	13.065	0.100
75.700	11.501	0.100
75.800	17.255	0.100
75.900	19.091	0.100
76.000	12.757	0.100
76.100	-0.895	0.100
76.200	4.791	0.100
76.300	3.149	0.100
76.400	18.574	0.100
76.500	13.087	0.100
76.600	12.879	0.100
76.700	9.042	0.100
76.800	1.030	0.100
76.900	13.930	0.100
77.000	15.223	0.100
77.100	10.104	0.100
77.200	8.630	0.100
77.300	-5.175	0.100
77.400	4.255	0.100
77.500	18.794	0.100
77.600	12.744	0.100
77.700	3.854	0.100
77.800	11.967	0.100
77.900	10.430	0.100
78.000	21.034	0.100
78.100	10.326	0.100
78.200	3.996	0.100
78.300	3.263	0.100
78.400	8.297	0.100
78.500	-0.604	0.100
78.600	9.913	0.100
78.700	21.610	0.100
78.800	11.736	0.100
78.900	4.827	0.100
79.000	13.767	0.100
79.100	9.396	0.100
79.200	16.722	0.100
79.300	6.719	0.100
79.400	12.099	0.100
79.500	11.368	0.100
79.600	-2.174	0.100
79.700	9.175	0.100
79.800	15.128	0.100
79.900	5.422	0.100
80.000	11.955	0.100
80.100	8.472	0.100
80.200	12.319	0.100
80.300	12.013	0.100
80.400	15.783	0.100
80.500	3.769	0.100
80.600	2.800	0.100
80.700	12.191	0.100
80.800	-0.456	0.100
80.900	10.987	0.100
81.000	7.577	0.100
81.100	7.513	0.100
81.200	11.487	0.100
81.300	4.717	0.100
81.400	13.620	0.100
81.500	10.195	0.100
81.600	6.123	0.100
81.700	4.825	0.100
81.800	6.385	0.100
81.900	10.262	0.100
82.000	3.331	0.100
82.100	8.209	0.100
82.200	4.920	0.100
82.300	9.146	0.100
82.400	0.267	0.100
82.500	15.758	0.100
82.600	11.576	0.100
82.700	8.578	0.100
82.800	12.952	0.100
82.900	7.915	0.100
83.000	18.129	0.100
83.100	8.795	0.100
83.200	6.357	0.100
83.300	7.051	0.100
83.400	16.221	0.100
83.500	6.139	0.100
83.600	14.507	0.100
83.700	8.947	0.100
83.800	11.547	0.100
83.900	10.183	0.100
84.000	15.322	0.100
84.100	9.228	0.100
84.200	-5.471	0.100
84.300	11.813	0.100
84.400	15.796	0.100
84.500	14.380	0.100
84.600	8.802	0.100
84.700	14.417	0.100
84.800	6.972	0.100
84.900	4.760	0.100
85.000	9.238	0.100
85.100	10.212	0.100
85.200	5.652	0.100
85.300	13.413	0.100
85.400	13.076	0.100
85.500	14.300	0.100
85.600	5.562	0.100
85.700	11.005	0.100
85.800	11.152	0.100
85.900	-1.682	0.100
86.000	10.485	0.100
86.100	9.415	0.100
86.200	12.687	0.100
86.300	7.859	0.100
86.400	5.289	0.100
86.500	-0.198	0.100
86.600	10.272	0.100
86.700	13.960	0.100
86.800	17.649	0.100
86.900	4.218	0.100
87.000	9.117	0.100
87.100	8.611	0.100
87.200	2.643	0.100
87.300	7.570	0.100
87.400	13.700	0.100
87.500	12.862	0.100
87.600	-1.779	0.100
87.700	10.306	0.100
87.800	13.695	0.100
87.900	12.206	0.100
88.000	7.248	0.100
88.100	11.161	0.100
88.200	-0.003	0.100
88.300	0.680	0.100
88.400	15.193	0.100
88.500	10.697	0.100
88.600	15.190	0.100
88.700	9.283	0.100
88.800	10.081	0.100
88.900	12.421	0.100
89.000	0.124	0.100
89.100	10.277	0.100
89.200	5.919	0.100
89.300	18.090	0.100
89.400	21.009	0.100
89.500	8.771	0.100
89.600	9.734	0.100
89.700	14.380	0.100
89.800	3.192	0.100
89.900	1.127	0.100
90.000	20.056	0.100
90.100	5.369	0.100
90.200	8.811	0.100
90.300	10.150	0.100
90.400	11.998	0.100
90.500	8.106	0.100
90.600	4.596	0.100
90.700	3.459	0.100
90.800	-4.936	0.100
90.900	-3.221	0.100
91.000	3.676	0.100
91.100	4.003	0.100
91.200	-2.368	0.100
91.300	-2.356	0.100
91.400	-11.670	0.100
91.500	2.299	0.100
91.600	-1.699	0.100
91.700	-0.313	0.100
91.800	-5.278	0.100
91.900	-12.801	0.100
92.000	-17.435	0.100
92.100	-15.960	0.100
92.200	-6.610	0.100
92.300	-5.392	0.100
92.400	-17.417	0.100
92.500	-19.337	0.100
92.600	-9.717	0.100
92.700	-5.818	0.100
92.800	-13.308	0.100
92.900	-11.376	0.100
93.000	-18.679	0.100
93.100	-16.076	0.100
93.200	-11.485	0.100
93.300	-5.773	0.100
93.400	-15.515	0.100
93.500	-10.499	0.100
93.600	-17.888	0.100
93.700	-10.377	0.100
93.800	-14.275	0.100
93.900	-19.322	0.100
94.000	-19.612	0.100
94.100	-6.776	0.100
94.200	-14.092	0.100
94.300	-9.487	0.100
94.400	-12.598	0.100
94.500	-16.789	0.100
94.600	-10.071	0.100
94.700	-12.300	0.100
94.800	-20.237	0.100
94.900	-13.217	0.100
95.000	-4.180	0.100
95.100	-11.295	0.100
95.200	-13.831	0.100
95.300	-9.717	0.100
95.400	-8.284	0.100
95.500	-18.811	0.100
95.600	-5.939	0.100
95.700	-8.896	0.100
95.800	-12.274	0.100
95.900	-14.118	0.100
96.000	-18.808	0.100
96.100	-11.234	0.100
96.200	-2.943	0.100
96.300	-8.898	0.100
96.400	-8.023	0.100
96.500	-9.207	0.100
96.600	-5.618	0.100
96.700	-16.573	0.100
96.800	-8.978	0.100
96.900	-9.001	0.100
97.000	-9.771	0.100
97.100	-11.135	0.100
97.200	-11.142	0.100
97.300	-14.182	0.100
97.400	-7.607	0.100
97.500	-4.711	0.100
97.600	-14.458	0.100
97.700	-5.657	0.100
97.800	-3.447	0.100
97.900	-11.797	0.100
98.000	-7.315	0.100
98.100	-12.531	0.100
98.200	-11.624	0.100
98.300	-1.404	0.100
98.400	-9.244	0.100
98.500	-10.207	0.100
98.600	-16.915	0.100
98.700	-6.662	0.100
98.800	-2.969	0.100
98.900	-19.387	0.100
99.000	-12.834	0.100
99.100	-3.519	0.100
99.200	-7.624	0.100
99.300	-10.505	0.100
99.400	-0.669	0.100
99.500	-10.966	0.100
99.600	-16.616	0.100
99.700	-5.138	0.100
99.800	-6.467	0.100
99.900	-11.702	0.100
100.000	-12.352	0.100
100.100	-11.844	0.100
100.200	-5.725	0.100
100.300	-3.074	0.100
100.400	-7.931	0.100
100.500	-3.601	0.100
100.600	-5.932	0.100
100.700	-1.030	0.100
100.800	-7.580	0.100
100.900	-2.242	0.100
101.000	-2.286	0.100
101.100	-14.061	0.100
101.200	-4.750	0.100
101.300	-5.170	0.100
101.400	0.197	0.100
101.500	-9.333	0.100
101.600	-6.967	0.100
101.700	-9.020	0.100
101.800	-9.112	0.100
101.900	6.679	0.100
102.000	-3.931	0.100
102.100	-8.283	0.100
102.200	-10.345	0.100
102.300	0.446	0.100
102.400	-6.332	0.100
102.500	-6.748	0.100
102.600	-5.447	0.100
102.700	-7.271	0.100
102.800	-2.558	0.100
102.900	-2.144	0.100
103.000	-8.330	0.100
103.100	-6.179	0.100
103.200	-1.276	0.100
103.300	-1.144	0.100
103.400	-7.553	0.100
103.500	-5.095	0.100
103.600	-6.222	0.100
103.700	-10.703	0.100
103.800	-7.682	0.100
103.900	-11.550	0.100
104.000	-4.634	0.100
104.100	-3.259	0.100
104.200	1.161	0.100
104.300	-8.560	0.100
104.400	-5.755	0.100
104.500	-14.218	0.100
104.600	-7.274	0.100
104.700	-11.625	0.100
104.800	-11.213	0.100
104.900	3.373	0.100
105.000	-4.632	0.100
105.100	-13.570	0.100
105.200	1.675	0.100
105.300	-9.758	0.100
105.400	-3.514	0.100
105.500	-4.747	0.100
105.600	-3.526	0.100
105.700	-16.270	0.100
105.800	-4.282	0.100
105.900	-7.624	0.100
106.000	-12.055	0.100
106.100	-6.226	0.100
106.200	-8.438	0.100
106.300	-3.758	0.100
106.400	-9.875	0.100
106.500	-2.645	0.100
106.600	-9.740	0.100
106.700	-11.211	0.100
106.800	-6.263	0.100
106.900	-9.730	0.100
107.000	-8.822	0.100
107.100	-5.743	0.100
107.200	-4.567	0.100
107.300	-5.672	0.100
107.400	-5.261	0.100
107.500	-9.375	0.100
107.600	-14.765	0.100
107.700	-10.813	0.100
107.800	-3.616	0.100
107.900	-14.820	0.100
108.000	-5.126	0.100
108.100	-6.022	0.100
108.200	-7.256	0.100
108.300	-9.969	0.100
108.400	-7.608	0.100
108.500	4.162	0.100
108.600	-6.610	0.100
108.700	-1.515	0.100
108.800	-13.954	0.100
108.900	-4.735	0.100
109.000	-9.624	0.100
109.100	-3.726	0.100
109.200	-2.269	0.100
109.300	-3.051	0.100
109.400	-5.156	0.100
109.500	-20.029	0.100
109.600	-4.510	0.100
109.700	-2.588	0.100
109.800	-12.709	0.100
109.900	-5.509	0.100
110.000	-3.500	0.100
110.100	-1.570	0.100
110.200	-5.758	0.100
110.300	-10.800	0.100
110.400	-1.897	0.100
110.500	-9.060	0.100
110.600	-12.263	0.100
110.700	-9.847	0.100
110.800	-6.149	0.100
110.900	-9.122	0.100
111.000	-5.304	0.100
111.100	-10.996	0.100
111.200	-5.433	0.100
111.300	-13.382	0.100
111.400	-6.889	0.100
111.500	-9.504	0.100
111.600	-2.456	0.100
111.700	-7.938	0.100
111.800	1.057	0.100
111.900	-6.275	0.100
112.000	-12.378	0.100
112.100	-8.322	0.100
112.200	-7.490	0.100
112.300	-5.554	0.100
112.400	-7.833	0.100
112.500	-12.436	0.100
112.600	-14.488	0.100
112.700	-8.890	0.100
112.800	-12.510	0.100
112.900	-3.364	0.100
113.000	-9.985	0.100
113.100	0.291	0.100
113.200	-3.142	0.100
113.300	-8.654	0.100
113.400	-9.418	0.100
113.500	-5.846	0.100
113.600	-11.418	0.100
113.700	-5.900	0.100
113.800	-8.470	0.100
113.900	-2.588	0.100
114.000	-6.400	0.100
114.100	-13.019	0.100
114.200	0.478	0.100
114.300	5.367	0.100
114.400	-8.550	0.100
114.500	-5.272	0.100
114.600	-6.553	0.100
114.700	-7.306	0.100
114.800	-15.093	0.100
114.900	-7.613	0.100
115.000	2.118	0.100
115.100	-1.369	0.100
115.200	-5.492	0.100
115.300	-0.223	0.100
115.400	-6.930	0.100
115.500	-10.214	0.100
115.600	-12.237	0.100
115.700	-9.311	0.100
115.800	-4.962	0.100
115.900	-11.660	0.100
116.000	-6.368	0.100
116.100	-2.037	0.100
116.200	-8.430	0.100
116.300	-7.949	0.100
116.400	-12.047	0.100
116.500	0.352	0.100
116.600	-2.675	0.100
116.700	-8.959	0.100
116.800	-5.941	0.100
116.900	-6.913	0.100
117.000	-0.995	0.100
117.100	-11.619	0.100
117.200	-7.015	0.100
117.300	-3.576	0.100
117.400	-14.597	0.100
117.500	-0.268	0.100
117.600	-10.474	0.100
117.700	1.579	0.100
117.800	-8.004	0.100
117.900	-14.221	0.100
118.000	-4.186	0.100
118.100	-8.292	0.100
118.200	-7.760	0.100
118.300	-5.159	0.100
118.400	-0.013	0.100
118.500	-7.757	0.100
118.600	-5.105	0.100
118.700	-6.598	0.100
118.800	-7.185	0.100
118.900	-0.383	0.100
119.000	-8.922	0.100
119.100	-5.817	0.100
119.200	-7.275	0.100
119.300	-5.994	0.100
119.400	-1.492	0.100
119.500	-6.593	0.100
119.600	-8.116	0.100
119.700	-9.271	0.100
119.800	-13.343	0.100
119.900	-13.937	0.100
120.000	4.007	0.100
120.100	-0.112	0.100
120.200	-13.264	0.100
120.300	-4.199	0.100
120.400	-11.239	0.100
120.500	-5.386	0.100
120.600	-12.462	0.100
120.700	-0.712	0.100
120.800	-10.588	0.100
120.900	-2.628	0.100
121.000	-4.947	0.100
121.100	-13.629	0.100
121.200	-8.449	0.100
121.300	-2.384	0.100
121.400	-4.521	0.100
121.500	0.173	0.100
121.600	-12.833	0.100
121.700	-7.441	0.100
121.800	-5.258	0.100
121.900	-10.749	0.100
122.000	-9.909	0.100
122.100	-10.657	0.100
122.200	-2.986	0.100
122.300	-7.124	0.100
122.400	-10.196	0.100
122.500	-8.681	0.100
122.600	-1.230	0.100
122.700	-17.067	0.100
122.800	-10.514	0.100
122.900	-0.916	0.100
123.000	-9.071	0.100
123.100	-9.907	0.100
123.200	-15.623	0.100
123.300	3.413	0.100
123.400	-17.608	0.100
123.500	-3.143	0.100
123.600	-13.937	0.100
123.700	-9.789	0.100
123.800	-13.185	0.100
123.900	-12.016	0.100
124.000	-4.447	0.100
124.100	-2.389	0.100
124.200	-3.761	0.100
124.300	-15.066	0.100
124.400	-9.527	0.100
124.500	-11.499	0.100
124.600	-14.378	0.100
124.700	-6.224	0.100
124.800	-5.133	0.100
124.900	-1.367	0.100
125.000	-17.135	0.100
125.100	-6.400	0.100
125.200	-6.962	0.100
125.300	-3.098	0.100
125.400	-13.867	0.100
125.500	-5.283	0.100
125.600	-8.162	0.100
125.700	-10.768	0.100
125.800	-10.010	0.100
125.900	-15.830	0.100
126.000	-10.500	0.100
126.100	1.243	0.100
126.200	-10.166	0.100
126.300	-2.511	0.100
126.400	-4.508	0.100
126.500	-9.010	0.100
126.600	-5.949	0.100
126.700	-4.468	0.100
126.800	-0.198	0.100
126.900	-7.422	0.100
127.000	-6.730	0.100
127.100	-6.011	0.100
127.200	-9.848	0.100
127.300	-23.424	0.100
127.400	-5.772	0.100
127.500	6.219	0.100
127.600	-5.205	0.100
127.700	2.036	0.100
127.800	-10.430	0.100
127.900	-12.096	0.100
128.000	-12.387	0.100
128.100	-7.023	0.100
128.200	-7.313	0.100
128.300	-5.525	0.100
128.400	-1.324	0.100
128.500	-11.955	0.100
128.600	-7.100	0.100
128.700	-1.403	0.100
128.800	-10.404	0.100
128.900	-4.887	0.100
129.000	-5.544	0.100
129.100	-9.516	0.100
129.200	-10.404	0.100
129.300	-16.951	0.100
129.400	-9.848	0.100
129.500	-4.586	0.100
129.600	-9.340	0.100
129.700	-0.179	0.100
129.800	-2.906	0.100
129.900	-7.694	0.100
130.000	-11.405	0.100
130.100	-7.142	0.100
130.200	-7.695	0.100
130.300	-6.457	0.100
130.400	-4.217	0.100
130.500	-3.612	0.100
130.600	-5.190	0.100
130.700	-8.451	0.100
130.800	-4.374	0.100
130.900	-8.235	0.100
131.000	-7.493	0.100
131.100	-13.916	0.100
131.200	-9.901	0.100
131.300	-16.073	0.100
131.400	-8.047	0.100
131.500	-11.953	0.100
131.600	-1.801	0.100
131.700	-10.663	0.100
131.800	-11.121	0.100
131.900	-8.104	0.100
132.000	-4.181	0.100
132.100	-16.389	0.100
132.200	-11.619	0.100
132.300	-0.242	0.100
132.400	-19.769	0.100
132.500	-11.128	0.100
132.600	3.108	0.100
132.700	-4.235	0.100
132.800	-5.394	0.100
132.900	-2.917	0.100
133.000	-16.206	0.100
133.100	-7.080	0.100
133.200	-8.794	0.100
133.300	-6.888	0.100
133.400	-6.345	0.100
133.500	-11.929	0.100
133.600	-5.507	0.100
133.700	-7.032	0.100
133.800	-1.873	0.100
133.900	-9.740	0.100
134.000	-7.512	0.100
134.100	-16.032	0.100
134.200	-5.195	0.100
134.300	-4.951	0.100
134.400	-2.426	0.100
134.500	-10.982	0.100
134.600	-16.719	0.100
134.700	-7.535	0.100
134.800	-10.440	0.100
134.900	-5.882	0.100
135.000	-2.392	0.100
135.100	-13.276	0.100
135.200	-4.102	0.100
135.300	-4.555	0.100
135.400	-1.294	0.100
135.500	-10.609	0.100
135.600	-3.368	0.100
135.700	-10.569	0.100
135.800	-5.999	0.100
135.900	-12.497	0.100
136.000	-6.579	0.100
136.100	-6.917	0.100
136.200	-8.811	0.100
136.300	-2.146	0.100
136.400	-2.195	0.100
136.500	-11.043	0.100
136.600	-0.378	0.100
136.700	0.146	0.100
136.800	-15.970	0.100
136.900	-10.910	0.100
137.000	-11.346	0.100
137.100	-4.936	0.100
137.200	5.312	0.100
137.300	-7.207	0.100
137.400	-8.288	0.100
137.500	-10.654	0.100
137.600	-11.667	0.100
137.700	-15.301	0.100
137.800	-1.601	0.100
137.900	-9.125	0.100
138.000	-15.319	0.100
138.100	-10.869	0.100
138.200	1.757	0.100
138.300	-6.003	0.100
138.400	-1.814	0.100
138.500	-17.838	0.100
138.600	-1.827	0.100
138.700	-11.186	0.100
138.800	2.105	0.100
138.900	-6.876	0.100
139.000	-6.572	0.100
139.100	2.168	0.100
139.200	-13.824	0.100
139.300	-15.001	0.100
139.400	-9.672	0.100
139.500	-9.493	0.100
139.600	-6.214	0.100
139.700	-3.557	0.100
139.800	-2.402	0.100
139.900	-8.331	0.100
140.000	-6.177	0.100
140.100	-3.942	0.100
140.200	-3.480	0.100
140.300	0.990	0.100
140.400	0.723	0.100
140.500	-7.572	0.100
140.600	-16.234	0.100
140.700	-12.341	0.100
140.800	-6.568	0.100
140.900	-5.938	0.100
141.000	-13.072	0.100
141.100	-3.884	0.100
141.200	-8.176	0.100
141.300	-11.020	0.100
141.400	2.740	0.100
141.500	-7.865	0.100
141.600	-3.949	0.100
141.700	-12.214	0.100
141.800	-17.605	0.100
141.900	2.927	0.100
142.000	-1.285	0.100
142.100	-6.801	0.100
142.200	-7.259	0.100
142.300	-4.468	0.100
142.400	-18.264	0.100
142.500	-3.073	0.100
142.600	-0.285	0.100
142.700	-1.040	0.100
142.800	-3.303	0.100
142.900	-6.691	0.100
143.000	-8.192	0.100
143.100	-1.619	0.100
143.200	0.899	0.100
143.300	-5.565	0.100
143.400	-14.543	0.100
143.500	-10.979	0.100
143.600	-6.468	0.100
143.700	-13.815	0.100
143.800	-10.670	0.100
143.900	-0.395	0.100
144.000	-3.772	0.100
144.100	-6.501	0.100
144.200	-10.811	0.100
144.300	-5.753	0.100
144.400	-7.037	0.100
144.500	-10.046	0.100
144.600	-6.221	0.100
144.700	-7.717	0.100
144.800	-6.280	0.100
144.900	-12.548	0.100
145.000	-7.866	0.100
145.100	-5.290	0.100
145.200	-11.730	0.100
145.300	-6.025	0.100
145.400	-5.743	0.100
145.500	-11.825	0.100
145.600	-3.186	0.100
145.700	-3.677	0.100
145.800	-6.637	0.100
145.900	-10.184	0.100
146.000	-7.537	0.100
146.100	-12.884	0.100
146.200	-8.113	0.100
146.300	-11.316	0.100
146.400	-6.841	0.100
146.500	-1.428	0.100
146.600	0.683	0.100
146.700	-3.425	0.100
146.800	-9.740	0.100
146.900	-4.428	0.100
147.000	-8.662	0.100
147.100	-7.296	0.100
147.200	-6.507	0.100
147.300	-9.645	0.100
147.400	-8.876	0.100
147.500	-15.555	0.100
147.600	-12.002	0.100
147.700	-4.142	0.100
147.800	-8.258	0.100
147.900	-19.967	0.100
148.000	-6.356	0.100
148.100	-11.158	0.100
148.200	-4.193	0.100
148.300	0.162	0.100
148.400	6.003	0.100
148.500	-0.259	0.100
148.600	-4.816	0.100
148.700	-9.905	0.100
148.800	-1.655	0.100
148.900	-5.597	0.100
149.000	-3.687	0.100
149.100	-3.305	0.100
149.200	-10.054	0.100
149.300	-14.212	0.100
149.400	-5.238	0.100
149.500	-8.185	0.100
149.600	-2.466	0.100
149.700	-11.747	0.100
149.800	-4.700	0.100
149.900	1.892	0.100
150.000	-5.616	0.100
150.100	-0.200	0.100
150.200	-4.874	0.100
150.300	-6.330	0.100
150.400	-18.504	0.100
150.500	-4.425	0.100
150.600	-11.502	0.100
150.700	-6.433	0.100
150.800	-7.073	0.100
150.900	-7.551	0.100
151.000	-1.388	0.100
151.100	-15.916	0.100
151.200	0.621	0.100
151.300	-0.770	0.100
151.400	-6.370	0.100
151.500	-13.600	0.100
151.600	-9.341	0.100
151.700	-3.434	0.100
151.800	-10.914	0.100
151.900	-4.521	0.100
152.000	2.895	0.100
152.100	1.692	0.100
152.200	-9.612	0.100
152.300	-9.626	0.100
152.400	-13.320	0.100
152.500	-7.995	0.100
152.600	1.062	0.100
152.700	-5.342	0.100
152.800	-6.264	0.100
152.900	-6.096	0.100
153.000	-10.948	0.100
153.100	1.427	0.100
153.200	-2.355	0.100
153.300	-12.131	0.100
153.400	-0.945	0.100
153.500	-6.384	0.100
153.600	0.006	0.100
153.700	-6.284	0.100
153.800	-1.072	0.100
153.900	-8.010	0.100
154.000	-1.074	0.100
154.100	-10.050	0.100
154.200	-15.305	0.100
154.300	-10.275	0.100
154.400	-7.618	0.100
154.500	-7.631	0.100
154.600	-9.204	0.100
154.700	-4.026	0.100
154.800	-2.744	0.100
154.900	-13.238	0.100
155.000	1.366	0.100
155.100	-6.096	0.100
155.200	-12.285	0.100
155.300	0.464	0.100
155.400	-12.630	0.100
155.500	-8.543	0.100
155.600	1.407	0.100
155.700	-5.592	0.100
155.800	-13.974	0.100
155.900	-1.169	0.100
156.000	4.596	0.100
156.100	-9.813	0.100
156.200	-12.470	0.100
156.300	-7.416	0.100
156.400	2.933	0.100
156.500	-7.921	0.100
156.600	-9.424	0.100
156.700	-3.375	0.100
156.800	-2.211	0.100
156.900	-0.226	0.100
157.000	-10.478	0.100
157.100	-4.287	0.100
157.200	-2.694	0.100
157.300	-13.477	0.100
157.400	-4.908	0.100
157.500	-10.470	0.100
157.600	-11.139	0.100
157.700	-19.346	0.100
157.800	-0.960	0.100
157.900	4.762	0.100
158.000	-0.817	0.100
158.100	-6.558	0.100
158.200	-2.912	0.100
158.300	-3.202	0.100
158.400	-6.094	0.100
158.500	-16.192	0.100
158.600	-5.094	0.100
158.700	-5.644	0.100
158.800	-2.721	0.100
158.900	-16.360	0.100
159.000	-3.360	0.100
159.100	-5.566	0.100
159.200	-6.563	0.100
159.300	-0.444	0.100
159.400	-5.910	0.100
159.500	2.246	0.100
159.600	-13.386	0.100
159.700	-7.198	0.100
159.800	-2.055	0.100
159.900	-12.925	0.100
160.000	-0.747	0.100
160.100	-9.588	0.100
160.200	-4.909	0.100
160.300	-2.663	0.100
160.400	-9.484	0.100
160.500	-12.507	0.100
160.600	-3.355	0.100
160.700	-0.060	0.100
160.800	-6.534	0.100
160.900	-13.730	0.100
161.000	-17.871	0.100
161.100	-7.639	0.100
161.200	1.288	0.100
161.300	-5.265	0.100
161.400	-3.079	0.100
161.500	2.937	0.100
161.600	-0.847	0.100
161.700	-15.618	0.100
161.800	-10.393	0.100
161.900	-15.393	0.100
162.000	-0.564	0.100
162.100	-5.318	0.100
162.200	-1.032	0.100
162.300	-2.668	0.100
162.400	-5.168	0.100
162.500	-7.378	0.100
162.600	-5.969	0.100
162.700	-14.837	0.100
162.800	-5.628	0.100
162.900	-16.235	0.100
163.000	-1.775	0.100
163.100	-3.357	0.100
163.200	-8.443	0.100
163.300	-7.316	0.100
163.400	-0.948	0.100
163.500	-10.899	0.100
163.600	-9.456	0.100
163.700	-9.398	0.100
163.800	0.762	0.100
163.900	-11.388	0.100
164.000	-4.725	0.100
164.100	-3.991	0.100
164.200	-2.421	0.100
164.300	-7.587	0.100
164.400	-4.276	0.100
164.500	-7.437	0.100
164.600	-11.536	0.100
164.700	-3.758	0.100
164.800	-13.305	0.100
164.900	-11.063	0.100
165.000	2.063	0.100
165.100	-5.191	0.100
165.200	-0.659	0.100
165.300	-10.573	0.100
165.400	-4.518	0.100
165.500	-1.786	0.100
165.600	-4.463	0.100
165.700	-7.700	0.100
165.800	-5.677	0.100
165.900	-6.067	0.100
166.000	-3.988	0.100
166.100	-10.545	0.100
166.200	-10.298	0.100
166.300	-5.556	0.100
166.400	0.068	0.100
166.500	2.492	0.100
166.600	-4.132	0.100
166.700	-10.879	0.100
166.800	-11.658	0.100
166.900	-7.259	0.100
167.000	-7.208	0.100
167.100	-9.894	0.100
167.200	-17.732	0.100
167.300	-4.014	0.100
167.400	0.245	0.100
167.500	-1.971	0.100
167.600	-9.651	0.100
167.700	-4.914	0.100
167.800	-1.665	0.100
167.900	-2.128	0.100
168.000	-7.823	0.100
168.100	-5.289	0.100
168.200	-12.947	0.100
168.300	-10.894	0.100
168.400	-10.005	0.100
168.500	-8.413	0.100
168.600	-3.380	0.100
168.700	-5.992	0.100
168.800	-0.949	0.100
168.900	-3.555	0.100
169.000	0.344	0.100
169.100	-6.480	0.100
169.200	-12.476	0.100
169.300	2.080	0.100
169.400	-2.334	0.100
169.500	0.884	0.100
169.600	-9.201	0.100
169.700	-8.613	0.100
169.800	-0.178	0.100
169.900	-2.702	0.100
170.000	-0.903	0.100
170.100	-13.099	0.100
170.200	-8.194	0.100
170.300	-7.989	0.100
170.400	-1.167	0.100
170.500	-7.826	0.100
170.600	-9.019	0.100
170.700	-9.274	0.100
170.800	4.967	0.100
170.900	3.061	0.100
171.000	-3.276	0.100
171.100	-12.760	0.100
171.200	-2.461	0.100
171.300	-10.054	0.100
171.400	-5.024	0.100
171.500	-5.206	0.100
171.600	-6.041	0.100
171.700	-5.778	0.100
171.800	-8.215	0.100
171.900	-9.210	0.100
172.000	-13.465	0.100
172.100	0.174	0.100
172.200	-5.058	0.100
172.300	3.245	0.100
172.400	-9.216	0.100
172.500	-11.738	0.100
172.600	-10.344	0.100
172.700	0.119	0.100
172.800	-0.093	0.100
172.900	3.771	0.100
173.000	3.059	0.100
173.100	-6.588	0.100
173.200	-4.548	0.100
173.300	-3.936	0.100
173.400	0.387	0.100
173.500	-2.045	0.100
173.600	-6.653	0.100
173.700	-12.526	0.100
173.800	-3.469	0.100
173.900	-12.295	0.100
174.000	-9.973	0.100
174.100	-1.043	0.100
174.200	-4.835	0.100
174.300	-9.151	0.100
174.400	-2.332	0.100
174.500	-4.072	0.100
174.600	0.237	0.100
174.700	-4.636	0.100
174.800	1.094	0.100
174.900	1.664	0.100
175.000	-12.948	0.100
175.100	-6.822	0.100
175.200	-4.147	0.100
175.300	-0.056	0.100
175.400	-5.687	0.100
175.500	-6.708	0.100
175.600	-11.298	0.100
175.700	-6.787	0.100
175.800	-6.300	0.100
175.900	-13.892	0.100
176.000	-10.713	0.100
176.100	-2.231	0.100
176.200	2.029	0.100
176.300	-1.195	0.100
176.400	-10.063	0.100
176.500	-9.633	0.100
176.600	-5.446	0.100
176.700	-4.507	0.100
176.800	-7.060	0.100
176.900	-5.166	0.100
177.000	0.496	0.100
177.100	-1.365	0.100
177.200	-8.370	0.100
177.300	-7.494	0.100
177.400	-4.967	0.100
177.500	-2.972	0.100
177.600	-4.772	0.100
177.700	-8.438	0.100
177.800	-4.377	0.100
177.900	-3.710	0.100
178.000	-10.388	0.100
178.100	-3.276	0.100
178.200	-5.884	0.100
178.300	-4.528	0.100
178.400	-3.193	0.100
178.500	-3.460	0.100
178.600	1.791	0.100
178.700	-15.691	0.100
178.800	-1.068	0.100
178.900	-1.661	0.100
179.000	-0.725	0.100
179.100	-8.857	0.100
179.200	-3.404	0.100
179.300	-8.308	0.100
179.400	-3.202	0.100
179.500	0.134	0.100
179.600	-10.139	0.100
179.700	-5.336	0.100
179.800	-11.341	0.100
179.900	-5.767	0.100
180.000	3.555	0.100
180.100	-5.225	0.100
180.200	-5.745	0.100
180.300	-0.469	0.100
180.400	-3.449	0.100
180.500	-4.119	0.100
180.600	1.891	0.100
180.700	13.066	0.100
180.800	2.174	0.100
180.900	10.781	0.100
181.000	9.084	0.100
181.100	0.566	0.100
181.200	10.518	0.100
181.300	15.747	0.100
181.400	11.743	0.100
181.500	15.179	0.100
181.600	14.176	0.100
181.700	6.535	0.100
181.800	10.526	0.100
181.900	22.334	0.100
182.000	16.922	0.100
182.100	16.567	0.100
182.200	19.893	0.100
182.300	12.471	0.100
182.400	15.268	0.100
182.500	2.931	0.100
182.600	9.104	0.100
182.700	6.932	0.100
182.800	14.418	0.100
182.900	19.367	0.100
183.000	33.786	0.100
183.100	19.518	0.100
183.200	11.019	0.100
183.300	20.645	0.100
183.400	10.964	0.100
183.500	13.888	0.100
183.600	6.731	0.100
183.700	15.415	0.100
183.800	7.121	0.100
183.900	14.890	0.100
184.000	11.428	0.100
184.100	12.060	0.100
184.200	8.911	0.100
184.300	8.434	0.100
184.400	12.560	0.100
184.500	16.353	0.100
184.600	15.459	0.100
184.700	11.846	0.100
184.800	10.131	0.100
184.900	16.736	0.100
185.000	10.451	0.100
185.100	16.924	0.100
185.200	19.458	0.100
185.300	0.682	0.100
185.400	11.799	0.100
185.500	14.068	0.100
185.600	9.429	0.100
185.700	0.757	0.100
185.800	7.862	0.100
185.900	10.953	0.100
186.000	7.440	0.100
186.100	5.674	0.100
186.200	5.201	0.100
186.300	10.760	0.100
186.400	11.663	0.100
186.500	-2.124	0.100
186.600	12.179	0.100
186.700	-0.981	0.100
186.800	9.373	0.100
186.900	-1.627	0.100
187.000	5.523	0.100
187.100	5.914	0.100
187.200	8.502	0.100
187.300	2.330	0.100
187.400	7.983	0.100
187.500	-5.298	0.100
187.600	4.632	0.100
187.700	8.285	0.100
187.800	5.839	0.100
187.900	5.874	0.100
188.000	9.888	0.100
188.100	8.609	0.100
188.200	11.636	0.100
188.300	18.822	0.100
188.400	4.964	0.100
188.500	6.255	0.100
188.600	10.832	0.100
188.700	10.575	0.100
188.800	6.090	0.100
188.900	7.803	0.100
189.000	10.125	0.100
189.100	10.163	0.100
189.200	12.035	0.100
189.300	13.857	0.100
189.400	9.644	0.100
189.500	12.322	0.100
189.600	10.570	0.100
189.700	9.784	0.100
189.800	14.571	0.100
189.900	7.999	0.100
190.000	18.783	0.100
190.100	16.880	0.100
190.200	12.161	0.100
190.300	1.918	0.100
190.400	7.498	0.100
190.500	8.133	0.100
190.600	17.160	0.100
190.700	16.946	0.100
190.800	2.810	0.100
190.900	7.110	0.100
191.000	3.827	0.100
191.100	13.986	0.100
191.200	13.879	0.100
191.300	9.891	0.100
191.400	9.957	0.100
191.500	9.725	0.100
191.600	15.940	0.100
191.700	11.620	0.100
191.800	7.722	0.100
191.900	19.802	0.100
192.000	23.820	0.100
192.100	13.240	0.100
192.200	4.190	0.100
192.300	18.430	0.100
192.400	12.352	0.100
192.500	18.255	0.100
192.600	14.735	0.100
192.700	13.259	0.100
192.800	18.216	0.100
192.900	13.235	0.100
193.000	6.906	0.100
193.100	21.636	0.100
193.200	10.064	0.100
193.300	24.132	0.100
193.400	14.791	0.100
193.500	19.312	0.100
193.600	11.588	0.100
193.700	13.505	0.100
193.800	4.689	0.100
193.900	14.475	0.100
194.000	12.414	0.100
194.100	12.762	0.100
194.200	24.241	0.100
194.300	10.222	0.100
194.400	9.357	0.100
194.500	16.145	0.100
194.600	20.389	0.100
194.700	18.050	0.100
194.800	14.347	0.100
194.900	11.441	0.100
195.000	22.338	0.100
195.100	8.956	0.100
195.200	0.523	0.100
195.300	11.769	0.100
195.400	29.335	0.100
195.500	14.699	0.100
195.600	9.670	0.100
195.700	21.527	0.100
195.800	12.542	0.100
195.900	14.737	0.100
196.000	10.896	0.100
196.100	24.280	0.100
196.200	4.695	0.100
196.300	16.943	0.100
196.400	17.941	0.100
196.500	16.933	0.100
196.600	13.560	0.100
196.700	18.048	0.100
196.800	18.476	0.100
196.900	24.401	0.100
197.000	7.696	0.100
197.100	11.398	0.100
197.200	11.908	0.100
197.300	15.819	0.100
197.400	27.972	0.100
197.500	20.200	0.100
197.600	22.588	0.100
197.700	14.005	0.100
197.800	9.295	0.100
197.900	15.085	0.100
198.000	12.968	0.100
198.100	14.008	0.100
198.200	12.515	0.100
198.300	20.810	0.100
198.400	14.734	0.100
198.500	19.666	0.100
198.600	21.062	0.100
198.700	13.817	0.100
198.800	6.873	0.100
198.900	16.357	0.100
199.000	17.051	0.100
199.100	18.018	0.100
199.200	22.014	0.100
199.300	18.311	0.100
199.400	14.836	0.100
199.500	18.634	0.100
199.600	12.917	0.100
199.700	11.391	0.100
199.800	17.457	0.100
199.900	15.336	0.100
200.000	19.736	0.100
200.100	17.078	0.100
200.200	18.847	0.100
200.300	14.206	0.100
200.400	25.185	0.100
200.500	10.791	0.100
200.600	-1.487	0.100
200.700	7.015	0.100
200.800	10.152	0.100
200.900	26.658	0.100
201.000	15.726	0.100
201.100	21.586	0.100
201.200	18.707	0.100
201.300	15.112	0.100
201.400	16.569	0.100
201.500	11.771	0.100
201.600	11.221	0.100
201.700	18.145	0.100
201.800	16.926	0.100
201.900	20.445	0.100
202.000	12.455	0.100
202.100	16.242	0.100
202.200	17.819	0.100
202.300	14.874	0.100
202.400	10.599	0.100
202.500	15.830	0.100
202.600	12.315	0.100
202.700	23.389	0.100
202.800	8.363	0.100
202.900	8.512	0.100
203.000	17.093	0.100
203.100	6.145	0.100
203.200	13.650	0.100
203.300	14.922	0.100
203.400	17.049	0.100
203.500	15.302	0.100
203.600	15.453	0.100
203.700	25.862	0.100
203.800	13.788	0.100
203.900	13.001	0.100
204.000	9.292	0.100
204.100	22.394	0.100
204.200	22.581	0.100
204.300	8.368	0.100
204.400	12.662	0.100
204.500	12.525	0.100
204.600	23.977	0.100
204.700	16.702	0.100
204.800	18.158	0.100
204.900	-0.506	0.100
205.000	11.176	0.100
205.100	13.763	0.100
205.200	8.031	0.100
205.300	15.711	0.100
205.400	13.755	0.100
205.500	23.917	0.100
205.600	20.174	0.100
205.700	13.931	0.100
205.800	9.455	0.100
205.900	21.321	0.100
206.000	16.730	0.100
206.100	13.337	0.100
206.200	15.765	0.100
206.300	6.196	0.100
206.400	6.564	0.100
206.500	16.209	0.100
206.600	15.007	0.100
206.700	7.059	0.100
206.800	12.412	0.100
206.900	18.989	0.100
207.000	10.472	0.100
207.100	14.172	0.100
207.200	17.588	0.100
207.300	15.659	0.100
207.400	9.733	0.100
207.500	10.952	0.100
207.600	15.113	0.100
207.700	16.865	0.100
207.800	17.690	0.100
207.900	22.980	0.100
208.000	11.971	0.100
208.100	12.340	0.100
208.200	9.265	0.100
208.300	14.723	0.100
208.400	9.214	0.100
208.500	17.732	0.100
208.600	13.432	0.100
208.700	12.720	0.100
208.800	9.251	0.100
208.900	11.709	0.100
209.000	20.409	0.100
209.100	20.344	0.100
209.200	20.128	0.100
209.300	2.321	0.100
209.400	7.742	0.100
209.500	14.426	0.100
209.600	16.137	0.100
209.700	18.563	0.100
209.800	17.564	0.100
209.900	8.841	0.100
210.000	15.026	0.100
210.100	10.684	0.100
210.200	5.388	0.100
210.300	23.907	0.100
210.400	11.629	0.100
210.500	7.785	0.100
210.600	12.189	0.100
210.700	10.275	0.100
210.800	17.600	0.100
210.900	9.278	0.100
211.000	17.549	0.100
211.100	16.798	0.100
211.200	3.708	0.100
211.300	5.177	0.100
211.400	12.029	0.100
211.500	17.862	0.100
211.600	20.409	0.100
211.700	20.063	0.100
211.800	12.000	0.100
211.900	5.455	0.100
212.000	12.258	0.100
212.100	12.418	0.100
212.200	13.306	0.100
212.300	13.234	0.100
212.400	11.344	0.100
212.500	19.380	0.100
212.600	19.729	0.100
212.700	14.324	0.100
212.800	5.128	0.100
212.900	13.794	0.100
213.000	18.532	0.100
213.100	11.426	0.100
213.200	12.529	0.100
213.300	11.384	0.100
213.400	6.528	0.100
213.500	19.382	0.100
213.600	7.928	0.100
213.700	17.857	0.100
213.800	15.499	0.100
213.900	7.064	0.100
214.000	5.259	0.100
214.100	8.225	0.100
214.200	9.042	0.100
214.300	17.224	0.100
214.400	12.584	0.100
214.500	11.410	0.100
214.600	12.044	0.100
214.700	22.133	0.100
214.800	4.736	0.100
214.900	12.105	0.100
215.000	20.463	0.100
215.100	7.453	0.100
215.200	12.756	0.100
215.300	17.240	0.100
215.400	15.998	0.100
215.500	12.356	0.100
215.600	20.981	0.100
215.700	7.278	0.100
215.800	13.562	0.100
215.900	13.450	0.100
216.000	11.840	0.100
216.100	14.161	0.100
216.200	18.854	0.100
216.300	11.185	0.100
216.400	1.390	0.100
216.500	9.845	0.100
216.600	18.175	0.100
216.700	12.192	0.100
216.800	11.779	0.100
216.900	2.378	0.100
217.000	21.957	0.100
217.100	5.677	0.100
217.200	12.313	0.100
217.300	20.825	0.100
217.400	4.770	0.100
217.500	6.224	0.100
217.600	20.415	0.100
217.700	13.627	0.100
217.800	10.201	0.100
217.900	11.025	0.100
218.000	14.179	0.100
218.100	14.990	0.100
218.200	14.999	0.100
218.300	11.996	0.100
218.400	4.467	0.100
218.500	11.391	0.100
218.600	14.145	0.100
218.700	18.784	0.100
218.800	14.764	0.100
218.900	10.925	0.100
219.000	11.120	0.100
219.100	11.083	0.100
219.200	-2.377	0.100
219.300	15.072	0.100
219.400	18.388	0.100
219.500	14.642	0.100
219.600	10.381	0.100
219.700	17.217	0.100
219.800	10.855	0.100
219.900	15.152	0.100
220.000	6.588	0.100
220.100	17.485	0.100
220.200	5.389	0.100
220.300	13.999	0.100
220.400	11.946	0.100
220.500	9.799	0.100
220.600	9.954	0.100
220.700	14.617	0.100
220.800	10.454	0.100
220.900	12.975	0.100
221.000	13.516	0.100
221.100	9.753	0.100
221.200	11.194	0.100
221.300	8.666	0.100
221.400	17.986	0.100
221.500	18.663	0.100
221.600	16.665	0.100
221.700	17.988	0.100
221.800	13.204	0.100
221.900	5.232	0.100
222.000	13.412	0.100
222.100	13.852	0.100
222.200	14.444	0.100
222.300	12.296	0.100
222.400	15.018	0.100
222.500	8.830	0.100
222.600	11.064	0.100
222.700	7.468	0.100
222.800	17.436	0.100
222.900	14.671	0.100
223.000	14.706	0.100
223.100	3.165	0.100
223.200	6.041	0.100
223.300	18.322	0.100
223.400	16.819	0.100
223.500	19.319	0.100
223.600	13.899	0.100
223.700	13.747	0.100
223.800	7.459	0.100
223.900	16.840	0.100
224.000	16.176	0.100
224.100	15.437	0.100
224.200	12.651	0.100
224.300	11.827	0.100
224.400	4.613	0.100
224.500	19.426	0.100
224.600	15.843	0.100
224.700	5.691	0.100
224.800	15.831	0.100
224.900	18.634	0.100
225.000	12.766	0.100
225.100	16.282	0.100
225.200	1.954	0.100
225.300	8.474	0.100
225.400	17.039	0.100
225.500	16.391	0.100
225.600	13.713	0.100
225.700	11.023	0.100
225.800	10.131	0.100
225.900	9.455	0.100
226.000	20.214	0.100
226.100	17.992	0.100
226.200	7.172	0.100
226.300	19.854	0.100
226.400	12.609	0.100
226.500	12.348	0.100
226.600	11.410	0.100
226.700	7.233	0.100
226.800	14.104	0.100
226.900	15.756	0.100
227.000	16.873	0.100
227.100	14.421	0.100
227.200	7.263	0.100
227.300	20.719	0.100
227.400	11.098	0.100
227.500	12.526	0.100
227.600	15.672	0.100
227.700	14.593	0.100
227.800	12.948	0.100
227.900	14.676	0.100
228.000	16.926	0.100
228.100	10.506	0.100
228.200	19.264	0.100
228.300	7.196	0.100
228.400	10.601	0.100
228.500	9.210	0.100
228.600	10.470	0.100
228.700	17.519	0.100
228.800	11.716	0.100
228.900	14.848	0.100
229.000	14.649	0.100
229.100	7.325	0.100
229.200	9.696	0.100
229.300	13.121	0.100
229.400	14.491	0.100
229.500	10.648	0.100
229.600	7.483	0.100
229.700	20.520	0.100
229.800	14.666	0.100
229.900	-1.227	0.100
230.000	17.998	0.100
230.100	12.997	0.100
230.200	11.702	0.100
230.300	13.916	0.100
230.400	18.071	0.100
230.500	18.124	0.100
230.600	12.791	0.100
230.700	9.889	0.100
230.800	11.670	0.100
230.900	9.294	0.100
231.000	11.692	0.100
231.100	11.582	0.100
231.200	17.722	0.100
231.300	17.260	0.100
231.400	3.463	0.100
231.500	7.703	0.100
231.600	24.470	0.100
231.700	19.624	0.100
231.800	12.799	0.100
231.900	17.207	0.100
232.000	12.948	0.100
232.100	11.317	0.100
232.200	8.431	0.100
232.300	11.121	0.100
232.400	16.762	0.100
232.500	14.023	0.100
232.600	19.789	0.100
232.700	13.699	0.100
232.800	13.065	0.100
232.900	7.616	0.100
233.000	14.159	0.100
233.100	17.518	0.100
233.200	13.447	0.100
233.300	11.278	0.100
233.400	12.744	0.100
233.500	10.965	0.100
233.600	14.168	0.100
233.700	6.547	0.100
233.800	12.157	0.100
233.900	10.800	0.100
234.000	10.305	0.100
234.100	17.830	0.100
234.200	7.694	0.100
234.300	18.389	0.100
234.400	17.808	0.100
234.500	18.746	0.100
234.600	18.201	0.100
234.700	7.207	0.100
234.800	18.249	0.100
234.900	12.044	0.100
235.000	9.813	0.100
235.100	14.911	0.100
235.200	4.387	0.100
235.300	15.061	0.100
235.400	13.870	0.100
235.500	11.636	0.100
235.600	13.856	0.100
235.700	5.748	0.100
235.800	22.005	0.100
235.900	14.261	0.100
236.000	11.283	0.100
236.100	11.902	0.100
236.200	13.372	0.100
236.300	14.912	0.100
236.400	12.466	0.100
236.500	15.281	0.100
236.600	18.551	0.100
236.700	16.835	0.100
236.800	3.428	0.100
236.900	15.062	0.100
237.000	12.588	0.100
237.100	9.707	0.100
237.200	4.393	0.100
237.300	7.499	0.100
237.400	11.122	0.100
237.500	14.076	0.100
237.600	16.929	0.100
237.700	14.882	0.100
237.800	12.844	0.100
237.900	9.103	0.100
238.000	14.899	0.100
238.100	17.830	0.100
238.200	22.940	0.100
238.300	5.263	0.100
238.400	6.516	0.100
238.500	13.839	0.100
238.600	17.596	0.100
238.700	6.258	0.100
238.800	17.230	0.100
238.900	15.880	0.100
239.000	17.173	0.100
239.100	6.681	0.100
239.200	11.399	0.100
239.300	15.515	0.100
239.400	19.374	0.100
239.500	8.105	0.100
239.600	12.165	0.100
239.700	8.889	0.100
239.800	15.087	0.100
239.900	13.134	0.100
240.000	10.007	0.100
240.100	11.810	0.100
240.200	23.481	0.100
240.300	10.984	0.100
240.400	9.310	0.100
240.500	7.207	0.100
240.600	11.080	0.100
240.700	6.383	0.100
240.800	-8.765	0.100
240.900	6.341	0.100
241.000	4.134	0.100
241.100	-7.340	0.100
241.200	-12.505	0.100
241.300	-11.053	0.100
241.400	-0.214	0.100
241.500	-3.980	0.100
241.600	-11.489	0.100
241.700	-17.892	0.100
241.800	-13.021	0.100
241.900	-5.369	0.100
242.000	-12.911	0.100
242.100	-20.889	0.100
242.200	-9.449	0.100
242.300	-20.029	0.100
242.400	-5.021	0.100
242.500	-14.486	0.100
242.600	-9.044	0.100
242.700	-19.424	0.100
242.800	-26.223	0.100
242.900	-14.188	0.100
243.000	-19.084	0.100
243.100	-14.560	0.100
243.200	-14.970	0.100
243.300	-20.598	0.100
243.400	-17.926	0.100
243.500	-15.105	0.100
243.600	-9.683	0.100
243.700	-14.135	0.100
243.800	-24.914	0.100
243.900	-11.553	0.100
244.000	-17.455	0.100
244.100	-7.926	0.100
244.200	-20.088	0.100
244.300	-15.695	0.100
244.400	-4.192	0.100
244.500	-13.816	0.100
244.600	-10.633	0.100
244.700	-8.900	0.100
244.800	-9.554	0.100
244.900	-7.502	0.100
245.000	-14.926	0.100
245.100	-16.967	0.100
245.200	-12.786	0.100
245.300	-16.840	0.100
245.400	-12.405	0.100
245.500	-17.581	0.100
245.600	-9.890	0.100
245.700	-9.939	0.100
245.800	-11.400	0.100
245.900	-7.507	0.100
246.000	-14.237	0.100
246.100	-13.467	0.100
246.200	-8.740	0.100
246.300	-11.076	0.100
246.400	-10.892	0.100
246.500	-8.565	0.100
246.600	-10.115	0.100
246.700	-4.177	0.100
246.800	-9.409	0.100
246.900	-16.008	0.100
247.000	-8.430	0.100
247.100	-5.092	0.100
247.200	-11.112	0.100
247.300	-7.546	0.100
247.400	-4.683	0.100
247.500	-9.157	0.100
247.600	-6.354	0.100
247.700	-11.241	0.100
247.800	-6.809	0.100
247.900	-2.431	0.100
248.000	-14.187	0.100
248.100	-11.896	0.100
248.200	-9.832	0.100
248.300	-5.865	0.100
248.400	-21.120	0.100
248.500	-6.648	0.100
248.600	-13.048	0.100
248.700	-5.704	0.100
248.800	-3.000	0.100
248.900	-17.901	0.100
249.000	-7.086	0.100
249.100	-5.766	0.100
249.200	-3.118	0.100
249.300	-2.792	0.100
249.400	-14.660	0.100
249.500	-10.574	0.100
249.600	-6.057	0.100
249.700	-0.686	0.100
249.800	-0.795	0.100
249.900	-6.481	0.100
250.000	-9.200	0.100
250.100	-8.717	0.100
250.200	-10.119	0.100
250.300	-14.896	0.100
250.400	-5.624	0.100
250.500	-7.095	0.100
250.600	-8.470	0.100
250.700	-4.348	0.100
250.800	-2.524	0.100
250.900	-8.710	0.100
251.000	-5.857	0.100
251.100	-11.949	0.100
251.200	-10.069	0.100
251.300	-3.991	0.100
251.400	1.959	0.100
251.500	-5.596	0.100
251.600	-2.787	0.100
251.700	-8.358	0.100
251.800	-9.928	0.100
251.900	-13.289	0.100
252.000	-12.038	0.100
252.100	-7.132	0.100
252.200	-5.414	0.100
252.300	-2.745	0.100
252.400	-9.518	0.100
252.500	-12.615	0.100
252.600	-11.777	0.100
252.700	-3.998	0.100
252.800	-12.376	0.100
252.900	-11.140	0.100
253.000	-6.447	0.100
253.100	-4.871	0.100
253.200	-8.478	0.100
253.300	-3.185	0.100
253.400	-8.733	0.100
253.500	-7.974	0.100
253.600	-17.807	0.100
253.700	-4.355	0.100
253.800	-3.132	0.100
253.900	-6.345	0.100
254.000	-3.505	0.100
254.100	-14.832	0.100
254.200	-11.177	0.100
254.300	-12.031	0.100
254.400	-1.489	0.100
254.500	-4.302	0.100
254.600	-11.050	0.100
254.700	-11.898	0.100
254.800	4.311	0.100
254.900	-6.487	0.100
255.000	0.351	0.100
255.100	-4.702	0.100
255.200	-10.952	0.100
255.300	-15.758	0.100
255.400	-13.803	0.100
255.500	-10.219	0.100
255.600	-6.994	0.100
255.700	0.947	0.100
255.800	-3.321	0.100
255.900	-5.203	0.100
256.000	-12.326	0.100
256.100	-10.900	0.100
256.200	-7.884	0.100
256.300	-6.230	0.100
256.400	-13.446	0.100
256.500	-9.610	0.100
256.600	0.198	0.100
256.700	-8.104	0.100
256.800	-9.794	0.100
256.900	-7.489	0.100
257.000	-7.996	0.100
257.100	-2.908	0.100
257.200	-4.249	0.100
257.300	-11.776	0.100
257.400	-6.316	0.100
257.500	-13.586	0.100
257.600	-3.463	0.100
257.700	-1.539	0.100
257.800	-11.720	0.100
257.900	-12.276	0.100
258.000	-10.837	0.100
258.100	-6.537	0.100
258.200	-4.185	0.100
258.300	-5.819	0.100
258.400	-3.345	0.100
258.500	-6.994	0.100
258.600	-16.784	0.100
258.700	-10.123	0.100
258.800	-5.553	0.100
258.900	-13.564	0.100
259.000	-6.826	0.100
259.100	-9.701	0.100
259.200	-10.991	0.100
259.300	-10.633	0.100
259.400	1.593	0.100
259.500	-6.065	0.100
259.600	-11.457	0.100
259.700	-9.530	0.100
259.800	-8.493	0.100
259.900	-13.240	0.100
260.000	-7.807	0.100
260.100	-11.695	0.100
260.200	-6.413	0.100
260.300	-7.532	0.100
260.400	-4.923	0.100
260.500	-4.623	0.100
260.600	0.288	0.100
260.700	-19.955	0.100
260.800	-18.936	0.100
260.900	-7.381	0.100
261.000	-13.490	0.100
261.100	-9.608	0.100
261.200	4.266	0.100
261.300	-8.454	0.100
261.400	-13.795	0.100
261.500	-14.795	0.100
261.600	-5.896	0.100
261.700	0.140	0.100
261.800	-5.184	0.100
261.900	-6.781	0.100
262.000	-11.548	0.100
262.100	-13.746	0.100
262.200	-20.057	0.100
262.300	-18.155	0.100
262.400	3.442	0.100
262.500	3.199	0.100
262.600	-6.655	0.100
262.700	-5.214	0.100
262.800	-8.255	0.100
262.900	-12.381	0.100
263.000	-8.731	0.100
263.100	-1.857	0.100
263.200	-0.931	0.100
263.300	-10.842	0.100
263.400	-12.151	0.100
263.500	-11.767	0.100
263.600	-4.889	0.100
263.700	-19.629	0.100
263.800	-15.538	0.100
263.900	-4.490	0.100
264.000	-10.809	0.100
264.100	-10.669	0.100
264.200	2.347	0.100
264.300	-13.961	0.100
264.400	-13.071	0.100
264.500	-0.550	0.100
264.600	-13.234	0.100
264.700	-11.730	0.100
264.800	-8.462	0.100
264.900	-6.019	0.100
265.000	-13.066	0.100
265.100	-6.988	0.100
265.200	-6.351	0.100
265.300	-11.364	0.100
265.400	-3.726	0.100
265.500	-15.586	0.100
265.600	-9.908	0.100
265.700	-13.579	0.100
265.800	-4.167	0.100
265.900	-5.177	0.100
266.000	-0.657	0.100
266.100	-4.749	0.100
266.200	-17.320	0.100
266.300	-3.913	0.100
266.400	-10.319	0.100
266.500	-0.639	0.100
266.600	-7.372	0.100
266.700	-23.686	0.100
266.800	-6.309	0.100
266.900	-7.381	0.100
267.000	-2.975	0.100
267.100	-14.675	0.100
267.200	-13.638	0.100
267.300	-8.669	0.100
267.400	-6.662	0.100
267.500	-17.897	0.100
267.600	-0.733	0.100
267.700	-15.602	0.100
267.800	-9.160	0.100
267.900	-14.533	0.100
268.000	-7.424	0.100
268.100	-4.956	0.100
268.200	-6.967	0.100
268.300	-1.954	0.100
268.400	-11.263	0.100
268.500	-8.330	0.100
268.600	-5.980	0.100
268.700	-10.913	0.100
268.800	-10.697	0.100
268.900	-2.553	0.100
269.000	-6.106	0.100
269.100	-9.768	0.100
269.200	-8.800	0.100
269.300	-16.738	0.100
269.400	-2.743	0.100
269.500	-11.152	0.100
269.600	-12.895	0.100
269.700	-6.999	0.100
269.800	-3.273	0.100
269.900	-10.834	0.100
270.000	-5.177	0.100
270.100	-17.569	0.100
270.200	-14.604	0.100
270.300	4.354	0.100
270.400	-5.567	0.100
270.500	-3.517	0.100
270.600	-14.422	0.100
270.700	-9.910	0.100
270.800	-7.518	0.100
270.900	-10.447	0.100
271.000	-5.395	0.100
271.100	-5.965	0.100
271.200	-8.241	0.100
271.300	-7.756	0.100
271.400	-18.269	0.100
271.500	-8.329	0.100
271.600	-8.890	0.100
271.700	-3.512	0.100
271.800	-7.819	0.100
271.900	-8.640	0.100
272.000	-6.215	0.100
272.100	-10.002	0.100
272.200	-8.580	0.100
272.300	-7.585	0.100
272.400	-8.498	0.100
272.500	-10.613	0.100
272.600	-11.728	0.100
272.700	-10.584	0.100
272.800	-1.477	0.100
272.900	-3.215	0.100
273.000	-11.078	0.100
273.100	-6.278	0.100
273.200	-6.107	0.100
273.300	-9.229	0.100
273.400	-16.320	0.100
273.500	-11.866	0.100
273.600	-10.876	0.100
273.700	-3.419	0.100
273.800	-9.295	0.100
273.900	-6.945	0.100
274.000	-14.129	0.100
274.100	-4.544	0.100
274.200	-10.719	0.100
274.300	-4.078	0.100
274.400	-13.913	0.100
274.500	-5.975	0.100
274.600	-18.036	0.100
274.700	-18.654	0.100
274.800	-17.570	0.100
274.900	1.772	0.100
275.000	-9.968	0.100
275.100	-11.211	0.100
275.200	-4.173	0.100
275.300	-8.833	0.100
275.400	-1.995	0.100
275.500	-10.385	0.100
275.600	-18.453	0.100
275.700	-11.379	0.100
275.800	-6.722	0.100
275.900	3.721	0.100
276.000	-7.529	0.100
276.100	-14.687	0.100
276.200	-12.315	0.100
276.300	-2.519	0.100
276.400	-7.312	0.100
276.500	-10.696	0.100
276.600	-11.946	0.100
276.700	-8.859	0.100
276.800	-3.258	0.100
276.900	-6.607	0.100
277.000	-4.032	0.100
277.100	-10.974	0.100
277.200	-6.991	0.100
277.300	-5.038	0.100
277.400	-11.639	0.100
277.500	-9.850	0.100
277.600	-18.521	0.100
277.700	-15.295	0.100
277.800	-18.074	0.100
277.900	-1.611	0.100
278.000	-9.211	0.100
278.100	-12.925	0.100
278.200	-5.579	0.100
278.300	-5.585	0.100
278.400	-10.884	0.100
278.500	-6.310	0.100
278.600	-10.167	0.100
278.700	-8.203	0.100
278.800	-12.624	0.100
278.900	-8.454	0.100
279.000	-11.412	0.100
279.100	-13.572	0.100
279.200	2.340	0.100
279.300	-4.991	0.100
279.400	-6.459	0.100
279.500	-5.217	0.100
279.600	-4.086	0.100
279.700	-11.541	0.100
279.800	-18.018	0.100
279.900	-12.363	0.100
280.000	-3.140	0.100
280.100	-10.741	0.100
280.200	-6.741	0.100
280.300	-3.789	0.100
280.400	-16.083	0.100
280.500	-11.101	0.100
280.600	1.280	0.100
280.700	-16.001	0.100
280.800	-8.679	0.100
280.900	-12.290	0.100
281.000	-9.887	0.100
281.100	-9.142	0.100
281.200	-2.820	0.100
281.300	-16.770	0.100
281.400	-13.352	0.100
281.500	-3.171	0.100
281.600	0.367	0.100
281.700	-16.467	0.100
281.800	-14.813	0.100
281.900	-18.371	0.100
282.000	-8.713	0.100
282.100	-2.250	0.100
282.200	-13.181	0.100
282.300	-11.400	0.100
282.400	-8.642	0.100
282.500	-3.572	0.100
282.600	-7.598	0.100
282.700	-12.220	0.100
282.800	-0.814	0.100
282.900	-13.422	0.100
283.000	-7.702	0.100
283.100	-6.505	0.100
283.200	-14.774	0.100
283.300	-4.047	0.100
283.400	-6.761	0.100
283.500	-0.765	0.100
283.600	-8.948	0.100
283.700	-11.418	0.100
283.800	-5.963	0.100
283.900	-10.206	0.100
284.000	-4.617	0.100
284.100	-13.178	0.100
284.200	-3.298	0.100
284.300	-5.478	0.100
284.400	3.602	0.100
284.500	-9.095	0.100
284.600	-10.510	0.100
284.700	-7.487	0.100
284.800	-19.216	0.100
284.900	-19.613	0.100
285.000	-8.470	0.100
285.100	-6.904	0.100
285.200	-7.094	0.100
285.300	-3.791	0.100
285.400	-9.973	0.100
285.500	-12.131	0.100
285.600	-9.541	0.100
285.700	-8.224	0.100
285.800	-12.631	0.100
285.900	-6.355	0.100
286.000	-15.718	0.100
286.100	-19.965	0.100
286.200	-9.242	0.100
286.300	-7.446	0.100
286.400	-4.422	0.100
286.500	-5.282	0.100
286.600	-5.532	0.100
286.700	-9.469	0.100
286.800	-6.317	0.100
286.900	-12.251	0.100
287.000	-5.552	0.100
287.100	-6.024	0.100
287.200	-9.087	0.100
287.300	-5.014	0.100
287.400	-5.451	0.100
287.500	-16.431	0.100
287.600	-4.765	0.100
287.700	-9.359	0.100
287.800	-7.382	0.100
287.900	-14.184	0.100
288.000	-1.554	0.100
288.100	-8.828	0.100
288.200	-4.594	0.100
288.300	-2.596	0.100
288.400	-2.037	0.100
288.500	-8.390	0.100
288.600	-9.309	0.100
288.700	-15.375	0.100
288.800	-8.598	0.100
288.900	-9.921	0.100
289.000	-10.418	0.100
289.100	-7.836	0.100
289.200	-3.224	0.100
289.300	-16.501	0.100
289.400	-12.311	0.100
289.500	-9.931	0.100
289.600	-4.089	0.100
289.700	0.150	0.100
289.800	-8.169	0.100
289.900	-21.423	0.100
290.000	-5.134	0.100
290.100	-12.231	0.100
290.200	2.560	0.100
290.300	-9.048	0.100
290.400	-10.505	0.100
290.500	-10.915	0.100
290.600	-9.037	0.100
290.700	-0.265	0.100
290.800	-0.208	0.100
290.900	-6.533	0.100
291.000	-8.330	0.100
291.100	-3.195	0.100
291.200	-7.520	0.100
291.300	-7.659	0.100
291.400	-10.710	0.100
291.500	-15.227	0.100
291.600	-18.589	0.100
291.700	-2.976	0.100
291.800	-10.952	0.100
291.900	-7.102	0.100
292.000	-9.239	0.100
292.100	-4.208	0.100
292.200	-10.868	0.100
292.300	-6.101	0.100
292.400	-3.184	0.100
292.500	-8.525	0.100
292.600	-13.005	0.100
292.700	-8.530	0.100
292.800	-13.123	0.100
292.900	-5.286	0.100
293.000	-1.194	0.100
293.100	-9.927	0.100
293.200	-8.502	0.100
293.300	-8.270	0.100
293.400	-15.091	0.100
293.500	-10.315	0.100
293.600	-2.830	0.100
293.700	-9.278	0.100
293.800	-13.277	0.100
293.900	-4.734	0.100
294.000	-9.122	0.100
294.100	-0.853	0.100
294.200	-6.505	0.100
294.300	-13.708	0.100
294.400	-13.893	0.100
294.500	-12.978	0.100
294.600	-5.127	0.100
294.700	-14.533	0.100
294.800	-11.747	0.100
294.900	3.125	0.100
295.000	-4.826	0.100
295.100	-13.060	0.100
295.200	-11.147	0.100
295.300	5.695	0.100
295.400	-6.143	0.100
295.500	-6.468	0.100
295.600	-3.831	0.100
295.700	-13.438	0.100
295.800	-15.724	0.100
295.900	-7.019	0.100
296.000	-7.026	0.100
296.100	-4.740	0.100
296.200	-7.942	0.100
296.300	-3.036	0.100
296.400	-5.296	0.100
296.500	-11.157	0.100
296.600	-18.487	0.100
296.700	-6.066	0.100
296.800	-9.942	0.100
296.900	-10.136	0.100
297.000	-1.547	0.100
297.100	1.181	0.100
297.200	-8.940	0.100
297.300	-4.664	0.100
297.400	-13.236	0.100
297.500	0.572	0.100
297.600	-1.795	0.100
297.700	-9.245	0.100
297.800	-13.032	0.100
297.900	-5.731	0.100
298.000	-15.990	0.100
298.100	-10.113	0.100
298.200	-2.452	0.100
298.300	-1.279	0.100
298.400	-16.815	0.100
298.500	-11.842	0.100
298.600	-4.877	0.100
298.700	-2.376	0.100
298.800	-11.890	0.100
298.900	0.619	0.100
299.000	-5.382	0.100
299.100	-4.008	0.100
299.200	-7.979	0.100
299.300	-14.854	0.100
299.400	-6.589	0.100
299.500	-3.339	0.100
299.600	-0.221	0.100
299.700	-9.757	0.100
299.800	-0.083	0.100
299.900	-7.630	0.100
300.000	-11.713	0.100
300.100	-17.176	0.100
300.200	-9.709	0.100
300.300	-11.621	0.100
300.400	-2.097	0.100
300.500	-5.633	0.100
300.600	-5.787	0.100
300.700	-10.176	0.100
300.800	-11.300	0.100
300.900	-7.518	0.100
301.000	-6.899	0.100
301.100	-12.729	0.100
301.200	-5.135	0.100
301.300	-3.556	0.100
301.400	-17.924	0.100
301.500	-11.225	0.100
301.600	-7.376	0.100
301.700	-10.499	0.100
301.800	-11.653	0.100
301.900	-7.084	0.100
302.000	-3.876	0.100
302.100	-14.530	0.100
302.200	-3.268	0.100
302.300	-1.101	0.100
302.400	-9.688	0.100
302.500	-11.345	0.100
302.600	-1.787	0.100
302.700	-12.612	0.100
302.800	-10.326	0.100
302.900	-0.826	0.100
303.000	-7.328	0.100
303.100	-7.541	0.100
303.200	-11.487	0.100
303.300	-4.827	0.100
303.400	-11.181	0.100
303.500	-1.092	0.100
303.600	-12.620	0.100
303.700	-9.079	0.100
303.800	-5.903	0.100
303.900	-9.689	0.100
304.000	-5.618	0.100
304.100	-7.050	0.100
304.200	-6.755	0.100
304.300	-8.401	0.100
304.400	-6.013	0.100
304.500	-3.573	0.100
304.600	-9.234	0.100
304.700	-9.660	0.100
304.800	-6.936	0.100
304.900	-9.817	0.100
305.000	-5.638	0.100
305.100	-10.508	0.100
305.200	-1.291	0.100
305.300	-9.561	0.100
305.400	-11.765	0.100
305.500	-6.546	0.100
305.600	-2.675	0.100
305.700	-5.592	0.100
305.800	-13.482	0.100
305.900	-13.715	0.100
306.000	-5.275	0.100
306.100	-3.035	0.100
306.200	-9.757	0.100
306.300	-5.324	0.100
306.400	-10.365	0.100
306.500	-0.477	0.100
306.600	-10.070	0.100
306.700	-9.500	0.100
306.800	-1.224	0.100
306.900	-5.788	0.100
307.000	-10.171	0.100
307.100	-9.124	0.100
307.200	-7.309	0.100
307.300	-1.468	0.100
307.400	-8.580	0.100
307.500	-11.216	0.100
307.600	-12.245	0.100
307.700	-6.112	0.100
307.800	-0.999	0.100
307.900	-0.024	0.100
308.000	-3.112	0.100
308.100	-11.927	0.100
308.200	-4.768	0.100
308.300	-4.067	0.100
308.400	-9.859	0.100
308.500	-5.042	0.100
308.600	-17.908	0.100
308.700	3.535	0.100
308.800	-5.525	0.100
308.900	-8.812	0.100
309.000	-8.687	0.100
309.100	-8.949	0.100
309.200	-2.166	0.100
309.300	-5.116	0.100
309.400	-9.594	0.100
309.500	-1.510	0.100
309.600	-15.137	0.100
309.700	-13.127	0.100
309.800	-0.410	0.100
309.900	-10.625	0.100
310.000	-3.024	0.100
310.100	-8.375	0.100
310.200	-5.536	0.100
310.300	-4.674	0.100
310.400	-14.640	0.100
310.500	-6.847	0.100
310.600	-10.612	0.100
310.700	-0.796	0.100
310.800	0.301	0.100
310.900	8.645	0.100
311.000	-2.493	0.100
311.100	-9.052	0.100
311.200	-12.629	0.100
311.300	-5.973	0.100
311.400	-5.832	0.100
311.500	-2.278	0.100
311.600	-9.759	0.100
311.700	-8.066	0.100
311.800	-12.916	0.100
311.900	-9.787	0.100
312.000	-3.000	0.100
312.100	-7.130	0.100
312.200	-4.023	0.100
312.300	-6.087	0.100
312.400	-0.955	0.100
312.500	-5.741	0.100
312.600	-3.541	0.100
312.700	-5.847	0.100
312.800	-6.995	0.100
312.900	-8.151	0.100
313.000	0.556	0.100
313.100	-7.760	0.100
313.200	-9.152	0.100
313.300	-2.218	0.100
313.400	-7.979	0.100
313.500	-0.018	0.100
313.600	-11.773	0.100
313.700	0.473	0.100
313.800	-9.396	0.100
313.900	-9.039	0.100
314.000	-3.682	0.100
314.100	-7.331	0.100
314.200	-5.613	0.100
314.300	-12.033	0.100
314.400	0.397	0.100
314.500	-9.280	0.100
314.600	-8.306	0.100
314.700	1.564	0.100
314.800	-6.230	0.100
314.900	-12.496	0.100
315.000	-10.264	0.100
315.100	-5.232	0.100
315.200	-1.323	0.100
315.300	-2.430	0.100
315.400	-7.800	0.100
315.500	-10.400	0.100
315.600	-10.132	0.100
315.700	-9.703	0.100
315.800	-9.590	0.100
315.900	1.698	0.100
316.000	-7.739	0.100
316.100	-13.924	0.100
316.200	0.051	0.100
316.300	-14.619	0.100
316.400	-2.821	0.100
316.500	-3.684	0.100
316.600	-6.828	0.100
316.700	-10.446	0.100
316.800	-0.913	0.100
316.900	1.005	0.100
317.000	-1.414	0.100
317.100	-10.950	0.100
317.200	-7.656	0.100
317.300	-10.632	0.100
317.400	-6.233	0.100
317.500	-5.540	0.100
317.600	3.892	0.100
317.700	-3.970	0.100
317.800	-8.042	0.100
317.900	-7.094	0.100
318.000	-2.683	0.100
318.100	-5.166	0.100
318.200	-6.016	0.100
318.300	2.997	0.100
318.400	-7.865	0.100
318.500	-2.597	0.100
318.600	-16.103	0.100
318.700	0.840	0.100
318.800	-9.963	0.100
318.900	-13.207	0.100
319.000	-5.526	0.100
319.100	2.205	0.100
319.200	-1.829	0.100
319.300	-14.857	0.100
319.400	1.321	0.100
319.500	-5.160	0.100
319.600	-6.572	0.100
319.700	-9.290	0.100
319.800	-16.513	0.100
319.900	-8.154	0.100
320.000	-2.886	0.100
320.100	-2.695	0.100
320.200	-0.479	0.100
320.300	-5.894	0.100
320.400	-10.063	0.100
320.500	-6.120	0.100
320.600	-3.919	0.100
320.700	0.546	0.100
320.800	-1.754	0.100
320.900	-5.052	0.100
321.000	5.618	0.100
321.100	-3.542	0.100
321.200	-17.760	0.100
321.300	-4.882	0.100
321.400	-12.242	0.100
321.500	-9.088	0.100
321.600	0.214	0.100
321.700	-4.571	0.100
321.800	-5.104	0.100
321.900	-7.425	0.100
322.000	-5.686	0.100
322.100	-2.731	0.100
322.200	0.143	0.100
322.300	-8.895	0.100
322.400	-2.172	0.100
322.500	-12.858	0.100
322.600	-2.085	0.100
322.700	-8.710	0.100
322.800	-11.376	0.100
322.900	-5.625	0.100
323.000	1.978	0.100
323.100	-6.749	0.100
323.200	-11.612	0.100
323.300	-5.573	0.100
323.400	-11.118	0.100
323.500	-3.419	0.100
323.600	-7.320	0.100
323.700	-3.520	0.100
323.800	-5.260	0.100
323.900	-6.843	0.100
324.000	-7.185	0.100
324.100	-6.585	0.100
324.200	-8.885	0.100
324.300	-5.247	0.100
324.400	-9.895	0.100
324.500	0.527	0.100
324.600	-1.057	0.100
324.700	-1.821	0.100
324.800	-4.009	0.100
324.900	-8.024	0.100
325.000	-0.965	0.100
325.100	-0.040	0.100
325.200	-7.709	0.100
325.300	-1.918	0.100
325.400	-5.369	0.100
325.500	-8.183	0.100
325.600	-9.745	0.100
325.700	-9.592	0.100
325.800	-12.486	0.100
325.900	-3.189	0.100
326.000	2.943	0.100
326.100	0.560	0.100
326.200	-5.266	0.100
326.300	-16.280	0.100
326.400	-6.014	0.100
326.500	-8.763	0.100
326.600	-5.542	0.100
326.700	-7.001	0.100
326.800	-9.377	0.100
326.900	-9.409	0.100
327.000	2.492	0.100
327.100	-3.927	0.100
327.200	-11.862	0.100
327.300	-2.720	0.100
327.400	-3.134	0.100
327.500	-7.329	0.100
327.600	-1.454	0.100
327.700	-3.639	0.100
327.800	-6.390	0.100
327.900	-7.150	0.100
328.000	-12.918	0.100
328.100	-6.458	0.100
328.200	-6.146	0.100
328.300	-4.980	0.100
328.400	-4.865	0.100
328.500	1.275	0.100
328.600	-6.162	0.100
328.700	-7.324	0.100
328.800	-10.719	0.100
328.900	-4.922	0.100
329.000	-2.381	0.100
329.100	-3.836	0.100
329.200	2.512	0.100
329.300	-6.763	0.100
329.400	-4.026	0.099
329.500	0.254	0.100
329.600	-3.733	0.100
329.700	-8.713	0.100
329.800	-2.926	0.100
329.900	2.039	0.100
330.000	-16.533	0.100
330.100	-3.294	0.100
330.200	1.894	0.100
330.300	-14.935	0.100
330.400	3.057	0.100
330.500	-5.833	0.100
330.600	-4.828	0.100
330.700	-2.795	0.100
330.800	7.853	0.099
330.900	9.695	0.100
331.000	9.656	0.099
331.100	6.489	0.100
331.200	1.230	0.099
331.300	18.356	0.099
331.400	9.609	0.100
331.500	8.805	0.100
331.600	18.082	0.100
331.700	23.652	0.099
331.800	21.076	0.099
331.900	10.821	0.099
332.000	11.630	0.099
332.100	21.053	0.099
332.200	10.812	0.099
332.300	21.595	0.099
332.400	15.728	0.099
332.500	14.149	0.099
332.600	14.110	0.099
332.700	12.360	0.100
332.800	21.322	0.099
332.900	15.572	0.100
333.000	12.836	0.099
333.100	13.025	0.100
333.200	16.883	0.099
333.300	8.613	0.099
333.400	13.734	0.099
333.500	15.845	0.099
333.600	10.455	0.099
333.700	6.727	0.099
333.800	11.354	0.099
333.900	24.013	0.099
334.000	16.979	0.099
334.100	13.666	0.099
334.200	11.202	0.099
334.300	2.510	0.099
334.400	8.052	0.099
334.500	13.418	0.099
334.600	21.371	0.099
334.700	9.765	0.099
334.800	13.362	0.099
334.900	1.636	0.099
335.000	8.362	0.099
335.100	5.097	0.099
335.200	8.681	0.099
335.300	17.231	0.099
335.400	14.321	0.099
335.500	8.679	0.099
335.600	8.954	0.099
335.700	-2.244	0.099
335.800	11.064	0.099
335.900	9.509	0.099
336.000	4.067	0.100
336.100	12.539	0.099
336.200	6.376	0.099
336.300	11.331	0.100
336.400	13.241	0.099
336.500	7.102	0.099
336.600	0.371	0.099
336.700	6.394	0.099
336.800	1.534	0.099
336.900	5.593	0.099
337.000	1.669	0.099
337.100	5.786	0.099
337.200	6.696	0.099
337.300	9.827	0.099
337.400	5.931	0.099
337.500	3.136	0.099
337.600	6.134	0.099
337.700	10.923	0.099
337.800	3.903	0.099
337.900	4.784	0.099
338.000	5.057	0.099
338.100	10.917	0.099
338.200	8.980	0.099
338.300	-1.408	0.099
338.400	12.099	0.099
338.500	12.325	0.099
338.600	4.256	0.099
338.700	6.920	0.099
338.800	14.045	0.099
338.900	9.673	0.099
339.000	5.281	0.099
339.100	1.900	0.099
339.200	13.906	0.099
339.300	5.732	0.099
339.400	11.195	0.099
339.500	9.231	0.099
339.600	9.081	0.099
339.700	3.461	0.099
339.800	7.492	0.099
339.900	12.277	0.099
340.000	6.898	0.099
340.100	8.627	0.099
340.200	14.755	0.099
340.300	6.489	0.099
340.400	9.831	0.099
340.500	9.589	0.099
340.600	10.582	0.099
340.700	3.514	0.099
340.800	6.926	0.099
340.900	9.227	0.099
341.000	12.620	0.099
341.100	13.259	0.099
341.200	16.552	0.099
341.300	13.440	0.099
341.400	10.428	0.099
341.500	5.711	0.099
341.600	13.362	0.099
341.700	15.307	0.099
341.800	15.585	0.099
341.900	8.782	0.099
342.000	14.282	0.099
342.100	5.296	0.099
342.200	20.427	0.099
342.300	11.094	0.099
342.400	14.148	0.099
342.500	16.581	0.099
342.600	3.816	0.099
342.700	5.642	0.099
342.800	11.411	0.099
342.900	13.443	0.099
343.000	14.398	0.099
343.100	16.456	0.099
343.200	15.666	0.099
343.300	15.455	0.099
343.400	13.982	0.099
343.500	4.482	0.099
343.600	14.847	0.099
343.700	13.265	0.099
343.800	17.608	0.099
343.900	16.032	0.099
344.000	7.268	0.099
344.100	17.856	0.099
344.200	11.521	0.099
344.300	21.064	0.099
344.400	18.659	0.099
344.500	10.067	0.099
344.600	14.087	0.099
344.700	15.374	0.099
344.800	4.803	0.099
344.900	16.683	0.099
345.000	18.923	0.099
345.100	15.796	0.099
345.200	14.588	0.099
345.300	19.555	0.099
345.400	19.376	0.099
345.500	17.270	0.099
345.600	17.118	0.099
345.700	21.288	0.099
345.800	13.293	0.099
345.900	19.873	0.099
346.000	10.046	0.099
346.100	15.109	0.099
346.200	8.334	0.099
346.300	18.031	0.099
346.400	14.183	0.099
346.500	10.732	0.099
346.600	20.072	0.099
346.700	24.176	0.099
346.800	18.108	0.099
346.900	25.439	0.099
347.000	8.596	0.099
347.100	12.989	0.099
347.200	12.612	0.099
347.300	14.169	0.099
347.400	17.702	0.099
347.500	27.642	0.099
347.600	18.876	0.099
347.700	16.814	0.099
347.800	12.929	0.099
347.900	16.167	0.099
348.000	8.056	0.099
348.100	14.790	0.099
348.200	15.515	0.099
348.300	12.910	0.099
348.400	18.774	0.099
348.500	14.003	0.099
348.600	13.197	0.099
348.700	16.309	0.099
348.800	21.351	0.099
348.900	14.093	0.099
349.000	21.138	0.099
349.100	14.694	0.099
349.200	17.814	0.099
349.300	8.238	0.099
349.400	12.228	0.099
349.500	17.687	0.099
349.600	27.075	0.099
349.700	10.327	0.099
349.800	23.016	0.099
349.900	19.575	0.099
350.000	17.302	0.099
350.100	17.486	0.099
350.200	17.652	0.099
350.300	7.074	0.099
350.400	12.188	0.099
350.500	16.043	0.099
350.600	12.112	0.099
350.700	18.250	0.099
350.800	15.942	0.099
350.900	20.462	0.099
351.000	15.284	0.099
351.100	13.518	0.099
351.200	17.644	0.099
351.300	24.601	0.099
351.400	20.321	0.099
351.500	18.092	0.099
351.600	15.893	0.099
351.700	13.058	0.099
351.800	11.728	0.099
351.900	10.280	0.099
352.000	16.864	0.099
352.100	21.716	0.099
352.200	24.884	0.099
352.300	19.158	0.099
352.400	11.570	0.099
352.500	18.851	0.099
352.600	16.375	0.099
352.700	17.904	0.099
352.800	18.099	0.099
352.900	20.831	0.099
353.000	15.190	0.099
353.100	11.054	0.099
353.200	13.752	0.099
353.300	22.062	0.099
353.400	10.605	0.099
353.500	21.152	0.099
353.600	12.957	0.099
353.700	17.254	0.099
353.800	13.990	0.099
353.900	12.892	0.099
354.000	15.680	0.099
354.100	16.034	0.099
354.200	20.129	0.099
354.300	18.637	0.099
354.400	11.679	0.099
354.500	18.285	0.099
354.600	17.629	0.099
354.700	15.211	0.099
354.800	13.552	0.099
354.900	16.666	0.099
355.000	14.087	0.099
355.100	14.031	0.099
355.200	8.624	0.099
355.300	16.978	0.099
355.400	22.125	0.099
355.500	5.925	0.099
355.600	17.032	0.099
355.700	17.713	0.099
355.800	22.332	0.099
355.900	11.785	0.099
356.000	18.582	0.099
356.100	21.388	0.099
356.200	16.592	0.099
356.300	17.535	0.099
356.400	13.249	0.099
356.500	8.921	0.099
356.600	7.790	0.099
356.700	11.562	0.099
356.800	15.599	0.099
356.900	25.560	0.099
357.000	19.013	0.099
357.100	19.762	0.099
357.200	17.514	0.099
357.300	20.016	0.099
357.400	10.095	0.099
357.500	14.298	0.099
357.600	22.108	0.099
357.700	22.893	0.099
357.800	9.424	0.099
357.900	2.577	0.099
358.000	22.735	0.099
358.100	15.362	0.099
358.200	12.168	0.099
358.300	13.542	0.099
358.400	16.774	0.099
358.500	10.543	0.099
358.600	16.900	0.099
358.700	11.965	0.099
358.800	10.056	0.099
358.900	11.712	0.099
359.000	12.440	0.099
359.100	15.967	0.099
359.200	16.966	0.099
359.300	12.167	0.099
359.400	7.762	0.099
359.500	16.211	0.099
359.600	12.828	0.099
359.700	23.034	0.099
359.800	15.808	0.099
359.900	8.709	0.099
360.000	10.635	0.099
360.100	9.112	0.099
360.200	15.977	0.099
360.300	19.156	0.099
360.400	14.642	0.099
360.500	18.789	0.099
360.600	25.164	0.099
360.700	0.994	0.099
360.800	15.261	0.099
360.900	15.884	0.099
361.000	12.536	0.099
361.100	8.847	0.099
361.200	9.918	0.099
361.300	14.389	0.099
361.400	11.913	0.099
361.500	15.334	0.099
361.600	10.658	0.099
361.700	17.588	0.099
361.800	19.993	0.099
361.900	9.335	0.099
362.000	11.330	0.099
362.100	16.867	0.099
362.200	10.465	0.099
362.300	14.431	0.099
362.400	10.860	0.099
362.500	9.180	0.099
362.600	16.607	0.099
362.700	11.687	0.099
362.800	18.544	0.099
362.900	13.781	0.099
363.000	5.625	0.099
363.100	8.981	0.099
363.200	20.957	0.099
363.300	20.318	0.099
363.400	16.769	0.099
363.500	16.747	0.099
363.600	10.576	0.099
363.700	11.219	0.099
363.800	12.743	0.099
363.900	16.428	0.099
364.000	15.182	0.099
364.100	22.302	0.099
364.200	14.053	0.099
364.300	6.452	0.099
364.400	9.944	0.099
364.500	20.005	0.099
364.600	12.605	0.099
364.700	10.596	0.099
364.800	6.665	0.099
364.900	8.253	0.099
365.000	25.218	0.099
365.100	24.262	0.099
365.200	12.052	0.099
365.300	10.828	0.099
365.400	8.191	0.099
365.500	13.097	0.099
365.600	11.793	0.099
365.700	14.465	0.099
365.800	13.131	0.099
365.900	16.013	0.099
366.000	12.421	0.099
366.100	12.372	0.099
366.200	7.091	0.099
366.300	12.888	0.099
366.400	16.643	0.099
366.500	13.577	0.099
366.600	20.126	0.099
366.700	23.727	0.099
366.800	19.031	0.099
366.900	14.733	0.099
367.000	9.363	0.099
367.100	15.188	0.099
367.200	24.375	0.099
367.300	17.571	0.099
367.400	5.742	0.099
367.500	18.462	0.099
367.600	14.645	0.099
367.700	17.602	0.099
367.800	10.237	0.099
367.900	6.421	0.099
368.000	12.902	0.099
368.100	8.000	0.099
368.200	15.292	0.099
368.300	14.777	0.099
368.400	10.938	0.099
368.500	17.468	0.099
368.600	14.219	0.099
368.700	9.690	0.099
368.800	8.805	0.099
368.900	18.794	0.099
369.000	17.138	0.099
369.100	10.847	0.099
369.200	13.522	0.099
369.300	14.852	0.099
369.400	9.128	0.099
369.500	9.838	0.099
369.600	18.871	0.099
369.700	16.983	0.099
369.800	7.433	0.099
369.900	12.567	0.099
370.000	11.515	0.099
370.100	11.821	0.099
370.200	18.989	0.099
370.300	13.830	0.099
370.400	14.407	0.099
370.500	13.192	0.099
370.600	12.174	0.099
370.700	8.195	0.099
370.800	13.509	0.099
370.900	22.287	0.099
371.000	18.309	0.099
371.100	14.522	0.099
371.200	11.773	0.099
371.300	3.867	0.099
371.400	13.129	0.099
371.500	14.145	0.099
371.600	16.279	0.099
371.700	3.477	0.099
371.800	13.687	0.099
371.900	12.269	0.099
372.000	13.892	0.099
372.100	17.763	0.099
372.200	19.656	0.099
372.300	13.885	0.099
372.400	13.103	0.099
372.500	14.961	0.099
372.600	8.756	0.099
372.700	7.755	0.099
372.800	7.997	0.099
372.900	16.577	0.099
373.000	12.254	0.099
373.100	17.598	0.099
373.200	7.316	0.099
373.300	9.823	0.099
373.400	14.894	0.099
373.500	13.254	0.099
373.600	12.645	0.099
373.700	18.048	0.099
373.800	19.456	0.099
373.900	0.944	0.099
374.000	7.843	0.099
374.100	21.768	0.099
374.200	16.420	0.099
374.300	15.021	0.099
374.400	5.918	0.099
374.500	15.551	0.099
374.600	15.792	0.099
374.700	13.310	0.099
374.800	15.678	0.099
374.900	10.764	0.099
375.000	13.728	0.099
375.100	9.766	0.099
375.200	16.452	0.099
375.300	8.739	0.099
375.400	8.920	0.099
375.500	8.030	0.099
375.600	8.493	0.099
375.700	6.375	0.099
375.800	14.722	0.099
375.900	23.666	0.099
376.000	18.005	0.099
376.100	18.731	0.099
376.200	6.494	0.099
376.300	17.901	0.099
376.400	9.629	0.099
376.500	17.142	0.099
376.600	18.593	0.099
376.700	10.741	0.099
376.800	13.187	0.099
376.900	11.873	0.099
377.000	17.729	0.099
377.100	13.219	0.099
377.200	10.635	0.099
377.300	15.748	0.099
377.400	12.193	0.099
377.500	12.104	0.099
377.600	14.163	0.099
377.700	14.211	0.099
377.800	20.709	0.099
377.900	13.949	0.099
378.000	17.776	0.099
378.100	23.785	0.099
378.200	14.247	0.099
378.300	17.542	0.099
378.400	16.921	0.099
378.500	5.189	0.099
378.600	11.695	0.099
378.700	19.295	0.099
378.800	11.528	0.099
378.900	8.015	0.099
379.000	8.945	0.099
379.100	13.267	0.099
379.200	10.595	0.099
379.300	14.082	0.099
379.400	5.407	0.099
379.500	14.167	0.099
379.600	14.980	0.099
379.700	13.862	0.099
379.800	15.196	0.099
379.900	19.885	0.099
380.000	11.363	0.099
380.100	12.655	0.099
380.200	13.568	0.099
380.300	8.280	0.099
380.400	23.287	0.099
380.500	14.726	0.099
380.600	12.045	0.099
380.700	15.663	0.099
380.800	12.172	0.099
380.900	8.758	0.099
381.000	12.043	0.099
381.100	8.041	0.099
381.200	17.006	0.099
381.300	11.340	0.099
381.400	14.266	0.099
381.500	9.864	0.099
381.600	14.107	0.099
381.700	0.928	0.099
381.800	14.772	0.099
381.900	21.502	0.099
382.000	6.683	0.099
382.100	8.454	0.099
382.200	11.908	0.099
382.300	7.657	0.099
382.400	14.378	0.099
382.500	7.093	0.099
382.600	11.850	0.099
382.700	24.580	0.099
382.800	26.992	0.099
382.900	17.110	0.099
383.000	6.216	0.099
383.100	19.554	0.099
383.200	11.973	0.099
383.300	8.387	0.099
383.400	18.877	0.099
383.500	16.441	0.099
383.600	17.254	0.099
383.700	13.821	0.099
383.800	9.228	0.099
383.900	12.316	0.099
384.000	8.783	0.099
384.100	8.695	0.099
384.200	19.167	0.099
384.300	11.772	0.099
384.400	16.879	0.099
384.500	22.088	0.099
384.600	10.046	0.099
384.700	18.297	0.099
384.800	10.768	0.099
384.900	13.245	0.099
385.000	10.490	0.099
385.100	12.788	0.099
385.200	11.989	0.099
385.300	4.602	0.099
385.400	21.747	0.099
385.500	3.664	0.099
385.600	10.461	0.099
385.700	18.331	0.099
385.800	21.695	0.099
385.900	9.400	0.099
386.000	13.999	0.099
386.100	17.561	0.099
386.200	15.079	0.099
386.300	3.720	0.099
386.400	23.163	0.099
386.500	15.590	0.099
386.600	13.312	0.099
386.700	27.492	0.100
386.800	8.575	0.100
386.900	11.194	0.100
387.000	9.851	0.100
387.100	12.931	0.100
387.200	6.546	0.100
387.300	14.018	0.100
387.400	17.658	0.100
387.500	21.139	0.100
387.600	10.005	0.100
387.700	16.184	0.100
387.800	8.188	0.100
387.900	8.643	0.100
388.000	10.293	0.100
388.100	14.515	0.100
388.200	18.295	0.100
388.300	12.520	0.100
388.400	18.153	0.100
388.500	11.655	0.100
388.600	12.814	0.100
388.700	11.774	0.100
388.800	10.891	0.100
388.900	15.551	0.100
389.000	18.705	0.100
389.100	12.652	0.100
389.200	15.703	0.100
389.300	16.676	0.100
389.400	17.205	0.100
389.500	-1.732	0.100
389.600	8.807	0.100
389.700	11.732	0.100
389.800	13.494	0.100
389.900	24.935	0.100
390.000	16.295	0.100
390.100	22.101	0.100
390.200	8.825	0.100
390.300	16.654	0.100
390.400	23.209	0.100
390.500	12.675	0.100
390.600	7.273	0.100
390.700	-1.170	0.100
390.800	-7.113	0.100
390.900	-4.998	0.100
391.000	-5.337	0.100
391.100	-10.701	0.100
391.200	-3.861	0.100
391.300	-5.439	0.100
391.400	3.745	0.100
391.500	6.291	0.100
391.600	-6.532	0.100
391.700	-14.599	0.100
391.800	-10.264	0.100
391.900	-12.191	0.100
392.000	-13.417	0.100
392.100	-16.413	0.100
392.200	-10.888	0.100
392.300	-15.094	0.100
392.400	-14.633	0.100
392.500	-14.870	0.100
392.600	-21.967	0.100
392.700	-19.312	0.100
392.800	-20.523	0.100
392.900	-15.537	0.100
393.000	-19.337	0.100
393.100	-12.996	0.100
393.200	-11.873	0.100
393.300	-19.520	0.100
393.400	-15.564	0.100
393.500	-18.886	0.100
393.600	-23.481	0.100
393.700	-11.960	0.100
393.800	-16.197	0.100
393.900	-23.292	0.100
394.000	-15.021	0.100
394.100	-16.207	0.100
394.200	-15.095	0.100
394.300	-15.242	0.100
394.400	-19.281	0.100
394.500	-17.982	0.100
394.600	-11.220	0.100
394.700	-21.487	0.100
394.800	-15.117	0.100
394.900	-10.613	0.100
395.000	-13.320	0.100
395.100	-16.560	0.100
395.200	-7.682	0.100
395.300	-9.664	0.100
395.400	-19.780	0.100
395.500	-12.150	0.100
395.600	-13.330	0.100
395.700	-7.874	0.100
395.800	-14.510	0.100
395.900	-8.915	0.100
396.000	-3.324	0.100
396.100	-15.385	0.100
396.200	-13.904	0.100
396.300	-7.620	0.100
396.400	-10.969	0.100
396.500	-16.137	0.100
396.600	-14.900	0.100
396.700	-5.154	0.100
396.800	-16.043	0.100
396.900	-11.362	0.100
397.000	-8.749	0.100
397.100	-13.978	0.100
397.200	-6.692	0.100
397.300	-8.378	0.100
397.400	-10.246	0.100
397.500	-12.761	0.100
397.600	-5.791	0.100
397.700	-10.344	0.100
397.800	-17.481	0.100
397.900	-8.063	0.100
398.000	-10.951	0.100
398.100	-13.595	0.100
398.200	-7.965	0.100
398.300	-12.986	0.100
398.400	-1.963	0.100
398.500	-16.336	0.100
398.600	-5.580	0.100
398.700	-4.762	0.100
398.800	0.964	0.100
398.900	-8.304	0.100
399.000	-8.700	0.100
399.100	-4.727	0.100
399.200	-5.942	0.100
399.300	-6.183	0.100
399.400	-10.758	0.100
399.500	-0.096	0.100
399.600	-11.183	0.100
399.700	-21.562	0.100
399.800	-1.108	0.100
399.900	-6.052	0.100
400.000	-6.616	0.100
400.100	-3.106	0.100
400.200	-12.259	0.100
400.300	-9.541	0.100
400.400	-3.257	0.100
400.500	-7.594	0.100
400.600	-5.244	0.100
400.700	-3.660	0.100
400.800	-8.020	0.100
400.900	-6.526	0.100
401.000	-9.659	0.100
401.100	-11.793	0.100
401.200	-12.379	0.100
401.300	-4.748	0.100
401.400	-3.067	0.100
401.500	-14.994	0.100
401.600	-3.009	0.100
401.700	-7.299	0.100
401.800	3.315	0.100
401.900	-8.289	0.100
402.000	-14.095	0.100
402.100	-5.008	0.100
402.200	-5.948	0.100
402.300	-8.511	0.100
402.400	-10.685	0.100
402.500	-12.608	0.100
402.600	-2.761	0.100
402.700	-9.614	0.100
402.800	-1.968	0.100
402.900	-0.355	0.100
403.000	-7.293	0.100
403.100	-5.559	0.100
403.200	-8.605	0.100
403.300	-8.933	0.100
403.400	-5.758	0.100
403.500	-6.255	0.100
403.600	-5.348	0.100
403.700	-7.529	0.100
403.800	-9.946	0.100
403.900	-11.917	0.100
404.000	-11.009	0.100
404.100	-2.125	0.100
404.200	-5.206	0.100
404.300	-10.103	0.100
404.400	-9.653	0.100
404.500	-7.789	0.100
404.600	-11.047	0.100
404.700	-6.253	0.100
404.800	-8.273	0.100
404.900	-4.466	0.100
405.000	-9.000	0.100
405.100	-12.712	0.100
405.200	-10.885	0.100
405.300	-7.168	0.100
405.400	-9.035	0.100
405.500	-10.038	0.100
405.600	-4.193	0.100
405.700	-8.400	0.100
405.800	-6.781	0.100
405.900	-14.158	0.100
406.000	-8.254	0.100
406.100	-8.248	0.100
406.200	-5.359	0.100
406.300	-10.892	0.100
406.400	-3.375	0.100
406.500	2.389	0.100
406.600	-1.341	0.100
406.700	-12.022	0.100
406.800	-10.269	0.100
406.900	-7.110	0.100
407.000	-19.011	0.100
407.100	3.740	0.100
407.200	-6.873	0.100
407.300	-11.541	0.100
407.400	-8.611	0.100
407.500	-10.342	0.100
407.600	-17.371	0.100
407.700	-11.247	0.100
407.800	4.632	0.100
407.900	-2.944	0.100
408.000	-8.658	0.100
408.100	-8.987	0.100
408.200	-10.031	0.100
408.300	-11.100	0.100
408.400	-10.775	0.100
408.500	-12.485	0.100
408.600	-10.440	0.100
408.700	-4.660	0.100
408.800	-10.140	0.100
408.900	-13.214	0.100
409.000	-15.295	0.100
409.100	-12.364	0.100
409.200	-8.078	0.100
409.300	-5.580	0.100
409.400	-14.899	0.100
409.500	-3.734	0.100
409.600	-5.914	0.100
409.700	-10.687	0.100
409.800	-10.388	0.100
409.900	-11.611	0.100
410.000	-6.405	0.100
410.100	-11.936	0.100
410.200	-9.269	0.100
410.300	-7.375	0.100
410.400	-12.161	0.100
410.500	-4.986	0.100
410.600	-8.811	0.100
410.700	-4.872	0.100
410.800	-7.333	0.100
410.900	-5.458	0.100
411.000	-12.142	0.100
411.100	-0.611	0.100
411.200	-17.887	0.100
411.300	-21.407	0.100
411.400	-4.842	0.100
411.500	-14.679	0.100
411.600	-4.414	0.100
411.700	-5.467	0.100
411.800	2.580	0.100
411.900	-12.378	0.100
412.000	-14.171	0.100
412.100	-16.664	0.100
412.200	-6.391	0.100
412.300	2.772	0.100
412.400	-11.650	0.100
412.500	-9.762	0.100
412.600	-3.276	0.100
412.700	-9.625	0.100
412.800	-7.636	0.100
412.900	-13.357	0.100
413.000	-13.817	0.100
413.100	-5.477	0.100
413.200	-9.434	0.100
413.300	-6.535	0.100
413.400	-17.410	0.100
413.500	-15.440	0.100
413.600	-6.766	0.100
413.700	-11.145	0.100
413.800	-6.712	0.100
413.900	-8.967	0.100
414.000	-7.211	0.100
414.100	-17.916	0.100
414.200	-10.152	0.100
414.300	-2.270	0.100
414.400	-0.807	0.100
414.500	-17.468	0.100
414.600	-4.345	0.100
414.700	-1.220	0.100
414.800	-8.613	0.100
414.900	-12.246	0.100
415.000	-20.820	0.100
415.100	1.096	0.100
415.200	-12.072	0.100
415.300	-9.423	0.100
415.400	-4.581	0.100
415.500	-5.501	0.100
415.600	-19.192	0.100
415.700	-7.612	0.100
415.800	-11.036	0.100
415.900	1.318	0.100
416.000	-13.734	0.100
416.100	-13.928	0.100
416.200	-9.944	0.100
416.300	-17.878	0.100
416.400	-8.470	0.100
416.500	-4.241	0.100
416.600	-3.334	0.100
416.700	-12.280	0.100
416.800	-16.893	0.100
416.900	-8.192	0.100
417.000	-13.078	0.100
417.100	-13.313	0.100
417.200	-13.711	0.100
417.300	-2.420	0.100
417.400	-8.902	0.100
417.500	-10.965	0.100
417.600	-10.788	0.100
417.700	-21.074	0.100
417.800	-17.947	0.100
417.900	-5.281	0.100
418.000	-11.860	0.100
418.100	-1.705	0.100
418.200	-9.669	0.100
418.300	-2.434	0.100
418.400	-12.092	0.100
418.500	-5.464	0.100
418.600	-10.484	0.100
418.700	-3.133	0.100
418.800	-20.557	0.100
418.900	-12.212	0.100
419.000	-13.397	0.100
419.100	-11.121	0.100
419.200	-4.422	0.100
419.300	-2.101	0.100
419.400	1.098	0.100
419.500	-18.802	0.100
419.600	-7.937	0.100
419.700	-16.420	0.100
419.800	-8.955	0.100
419.900	-7.687	0.100
420.000	-2.000	0.100
420.100	-7.570	0.100
420.200	-16.148	0.100
420.300	-11.548	0.100
420.400	-4.940	0.100
420.500	-13.895	0.100
420.600	-5.998	0.100
420.700	-2.964	0.100
420.800	-16.620	0.100
420.900	-7.880	0.100
421.000	-6.138	0.100
421.100	-13.525	0.100
421.200	-11.020	0.100
421.300	-2.295	0.100
421.400	-9.436	0.100
421.500	-13.036	0.100
421.600	-5.762	0.100
421.700	-10.397	0.100
421.800	-16.777	0.100
421.900	-11.782	0.100
422.000	-11.519	0.100
422.100	-8.149	0.100
422.200	-4.379	0.100
422.300	-6.614	0.100
422.400	-13.073	0.100
422.500	-7.616	0.100
422.600	-11.883	0.100
422.700	-18.303	0.100
422.800	-7.889	0.100
422.900	-9.423	0.100
423.000	-10.957	0.100
423.100	-8.957	0.100
423.200	1.177	0.100
423.300	-10.163	0.100
423.400	-7.483	0.100
423.500	-10.509	0.100
423.600	-15.324	0.100
423.700	-4.123	0.100
423.800	-9.178	0.100
423.900	-17.092	0.100
424.000	-13.080	0.100
424.100	-5.748	0.100
424.200	-12.005	0.100
424.300	-12.121	0.100
424.400	-11.584	0.100
424.500	-12.795	0.100
424.600	-8.685	0.100
424.700	-11.874	0.100
424.800	-8.424	0.100
424.900	-13.720	0.100
425.000	-2.601	0.100
425.100	-13.078	0.100
425.200	-9.327	0.100
425.300	-6.600	0.100
425.400	-13.179	0.100
425.500	-9.486	0.100
425.600	-2.217	0.100
425.700	-3.082	0.100
425.800	-17.731	0.100
425.900	-9.942	0.100
426.000	-2.885	0.100
426.100	-11.331	0.100
426.200	-11.412	0.100
426.300	-9.763	0.100
426.400	-7.202	0.100
426.500	-11.381	0.100
426.600	-7.763	0.100
426.700	-9.531	0.100
426.800	-9.635	0.100
426.900	-5.918	0.100
427.000	-17.631	0.100
427.100	-6.937	0.100
427.200	-7.400	0.100
427.300	-10.897	0.100
427.400	-9.895	0.100
427.500	-12.311	0.100
427.600	-2.652	0.100
427.700	-12.130	0.100
427.800	-3.130	0.100
427.900	-14.401	0.100
428.000	-8.063	0.100
428.100	-8.777	0.100
428.200	-13.895	0.100
428.300	-8.136	0.100
428.400	-11.969	0.100
428.500	-9.057	0.100
428.600	-7.962	0.100
428.700	-11.680	0.100
428.800	-13.244	0.100
428.900	-6.814	0.100
429.000	-8.744	0.100
429.100	-5.009	0.100
429.200	-6.168	0.100
429.300	-16.971	0.100
429.400	-13.642	0.100
429.500	-4.413	0.100
429.600	-4.812	0.100
429.700	-9.030	0.100
429.800	-16.350	0.100
429.900	-11.232	0.100
430.000	-20.373	0.100
430.100	-12.400	0.100
430.200	-4.942	0.100
430.300	-2.261	0.100
430.400	-7.111	0.100
430.500	-18.746	0.100
430.600	-8.082	0.100
430.700	-8.637	0.100
430.800	-8.681	0.100
430.900	-11.138	0.100
431.000	-1.886	0.100
431.100	-7.470	0.100
431.200	-12.518	0.100
431.300	-10.310	0.100
431.400	-8.839	0.100
431.500	-11.980	0.100
431.600	-11.661	0.100
431.700	-8.623	0.100
431.800	-3.328	0.100
431.900	-3.180	0.100
432.000	-12.928	0.100
432.100	-11.433	0.100
432.200	-8.454	0.100
432.300	-2.519	0.100
432.400	-7.529	0.100
432.500	-15.577	0.100
432.600	-8.157	0.100
432.700	-2.392	0.100
432.800	-9.760	0.100
432.900	-5.992	0.100
433.000	-4.097	0.100
433.100	-10.989	0.100
433.200	-10.998	0.100
433.300	-9.633	0.100
433.400	-8.902	0.100
433.500	-9.222	0.100
433.600	-13.453	0.100
433.700	-9.224	0.100
433.800	-0.478	0.100
433.900	-9.421	0.100
434.000	-3.789	0.100
434.100	-6.412	0.100
434.200	-11.531	0.100
434.300	-6.626	0.100
434.400	-13.967	0.100
434.500	-10.378	0.100
434.600	-3.403	0.100
434.700	-5.187	0.100
434.800	-9.714	0.100
434.900	-12.673	0.100
435.000	-8.765	0.100
435.100	-6.291	0.100
435.200	-3.789	0.100
435.300	-10.425	0.100
435.400	-8.899	0.100
435.500	-10.705	0.100
435.600	-20.282	0.100
435.700	-5.189	0.100
435.800	-3.630	0.100
435.900	-7.934	0.100
436.000	-9.885	0.100
436.100	-13.833	0.100
436.200	-1.393	0.100
436.300	-6.339	0.100
436.400	-8.692	0.100
436.500	-9.662	0.100
436.600	-5.725	0.100
436.700	-9.117	0.100
436.800	-12.981	0.100
436.900	-13.079	0.100
437.000	-7.317	0.100
437.100	-11.647	0.100
437.200	-4.693	0.100
437.300	-8.381	0.100
437.400	-3.853	0.100
437.500	-13.313	0.100
437.600	-19.376	0.100
437.700	-9.404	0.100
437.800	-1.510	0.100
437.900	-11.207	0.100
438.000	-7.994	0.100
438.100	-4.866	0.100
438.200	-13.967	0.100
438.300	-17.377	0.100
438.400	-4.558	0.100
438.500	-5.488	0.100
438.600	-11.338	0.100
438.700	-7.551	0.100
438.800	-8.663	0.100
438.900	-10.981	0.100
439.000	1.693	0.100
439.100	-7.173	0.100
439.200	-7.277	0.100
439.300	-9.663	0.100
439.400	-12.180	0.100
439.500	-6.735	0.100
439.600	-8.721	0.100
439.700	-16.229	0.100
439.800	-2.098	0.100
439.900	0.159	0.100
440.000	-5.226	0.100
440.100	-6.661	0.100
440.200	-19.391	0.100
440.300	0.282	0.100
440.400	-13.913	0.100
440.500	-6.443	0.100
440.600	-4.495	0.100
440.700	-13.109	0.100
440.800	-11.895	0.100
440.900	-3.304	0.100
441.000	-11.334	0.100
441.100	-14.521	0.100
441.200	-7.804	0.100
441.300	-8.582	0.100
441.400	-6.517	0.100
441.500	-1.954	0.100
441.600	-10.192	0.100
441.700	-9.102	0.100
441.800	-2.640	0.100
441.900	-1.808	0.100
442.000	-17.971	0.100
442.100	-9.436	0.100
442.200	-10.523	0.100
442.300	-6.329	0.100
442.400	-9.383	0.100
442.500	-11.291	0.100
442.600	-11.297	0.100
442.700	-11.175	0.100
442.800	-4.147	0.100
442.900	-17.873	0.100
443.000	-7.870	0.100
443.100	-5.144	0.100
443.200	-7.858	0.100
443.300	-2.130	0.100
443.400	-14.937	0.100
443.500	-18.162	0.100
443.600	-9.949	0.100
443.700	-12.352	0.100
443.800	-15.067	0.100
443.900	-3.495	0.100
444.000	-3.657	0.100
444.100	-6.715	0.100
444.200	-18.239	0.100
444.300	-6.283	0.100
444.400	-13.268	0.100
444.500	-5.658	0.100
444.600	-6.248	0.100
444.700	-7.286	0.100
444.800	-4.149	0.100
444.900	-5.046	0.100
445.000	-0.900	0.100
445.100	-7.180	0.100
445.200	-6.404	0.100
445.300	-7.476	0.100
445.400	-2.853	0.100
445.500	-17.884	0.100
445.600	-3.907	0.100
445.700	-9.107	0.100
445.800	-9.304	0.100
445.900	-7.969	0.100
446.000	-17.008	0.100
446.100	-3.473	0.100
446.200	-4.925	0.100
446.300	-8.649	0.100
446.400	-3.791	0.100
446.500	-13.585	0.100
446.600	-6.051	0.100
446.700	-4.414	0.100
446.800	-14.091	0.100
446.900	-9.697	0.100
447.000	-0.421	0.100
447.100	-10.027	0.100
447.200	-4.080	0.100
447.300	-7.109	0.100
447.400	-12.706	0.100
447.500	-12.696	0.100
447.600	-4.004	0.100
447.700	-2.665	0.100
447.800	-9.585	0.100
447.900	-21.488	0.100
448.000	-3.929	0.100
448.100	-10.316	0.100
448.200	-6.891	0.100
448.300	-5.264	0.100
448.400	-8.801	0.100
448.500	-4.099	0.100
448.600	-6.810	0.100
448.700	-15.879	0.100
448.800	-12.139	0.100
448.900	-9.311	0.100
449.000	-14.662	0.100
449.100	-3.493	0.100
449.200	-4.744	0.100
449.300	-5.183	0.100
449.400	-5.319	0.100
449.500	-14.007	0.100
449.600	-6.129	0.100
449.700	-8.156	0.100
449.800	-5.611	0.100
449.900	-5.629	0.100
450.000	-11.666	0.100
450.100	-12.286	0.100
450.200	-1.386	0.100
450.300	0.493	0.100
450.400	-2.143	0.100
450.500	-6.848	0.100
450.600	-4.984	0.100
450.700	-4.198	0.100
450.800	-5.414	0.100
450.900	-15.055	0.100
451.000	-8.929	0.100
451.100	-12.559	0.100
451.200	0.553	0.100
451.300	-8.951	0.100
451.400	-0.976	0.100
451.500	-6.760	0.100
451.600	-7.406	0.100
451.700	-3.799	0.100
451.800	-5.776	0.100
451.900	-7.235	0.100
452.000	-14.017	0.100
452.100	-12.352	0.100
452.200	-12.524	0.100
452.300	-10.894	0.100
452.400	-8.907	0.100
452.500	3.312	0.100
452.600	-2.454	0.100
452.700	-3.731	0.100
452.800	-7.804	0.100
452.900	-11.452	0.100
453.000	-13.435	0.100
453.100	-11.677	0.100
453.200	1.215	0.100
453.300	-16.641	0.100
453.400	-14.286	0.100
453.500	-6.204	0.100
453.600	-0.724	0.100
453.700	-15.024	0.100
453.800	-5.571	0.100
453.900	-7.608	0.100
454.000	-3.783	0.100
454.100	-2.119	0.100
454.200	-14.221	0.100
454.300	-10.791	0.100
454.400	5.440	0.100
454.500	-1.951	0.100
454.600	-9.055	0.100
454.700	-1.240	0.100
454.800	-18.171	0.100
454.900	0.092	0.100
455.000	-5.333	0.100
455.100	-9.638	0.100
455.200	-7.536	0.100
455.300	-14.272	0.100
455.400	0.351	0.100
455.500	-12.002	0.100
455.600	-0.593	0.100
455.700	-15.255	0.100
455.800	-6.349	0.100
455.900	-6.750	0.100
456.000	-5.072	0.100
456.100	-4.405	0.100
456.200	-10.907	0.100
456.300	-9.058	0.100
456.400	-3.873	0.100
456.500	-11.876	0.100
456.600	-8.981	0.100
456.700	-12.036	0.100
456.800	-9.659	0.100
456.900	3.855	0.100
457.000	-7.527	0.100
457.100	-2.289	0.100
457.200	-7.628	0.100
457.300	-13.199	0.100
457.400	4.609	0.100
457.500	-5.804	0.100
457.600	-15.722	0.100
457.700	-10.209	0.100
457.800	-8.255	0.100
457.900	-11.873	0.100
458.000	-9.939	0.100
458.100	-8.208	0.100
458.200	0.019	0.100
458.300	-10.465	0.100
458.400	-0.489	0.100
458.500	-1.043	0.100
458.600	-7.484	0.100
458.700	-11.640	0.100
458.800	-10.428	0.100
458.900	-12.663	0.100
459.000	-3.022	0.100
459.100	-17.474	0.100
459.200	-3.953	0.100
459.300	-8.373	0.100
459.400	-6.293	0.100
459.500	0.222	0.100
459.600	2.268	0.100
459.700	-10.322	0.100
459.800	-11.097	0.100
459.900	-9.952	0.100
460.000	-2.646	0.100
460.100	-10.585	0.100
460.200	-12.031	0.100
460.300	-1.987	0.100
460.400	-3.056	0.100
460.500	-1.965	0.100
460.600	-4.443	0.100
460.700	-13.089	0.100
460.800	-9.323	0.100
460.900	-6.064	0.100
461.000	-4.770	0.100
461.100	-8.651	0.100
461.200	-7.188	0.100
461.300	-8.138	0.100
461.400	-4.043	0.100
461.500	-7.917	0.100
461.600	-14.903	0.100
461.700	-4.680	0.100
461.800	1.477	0.100
461.900	-4.738	0.100
462.000	-15.814	0.100
462.100	-13.760	0.100
462.200	-0.694	0.100
462.300	-9.476	0.100
462.400	-13.901	0.100
462.500	0.228	0.100
462.600	-1.445	0.100
462.700	-0.881	0.100
462.800	-6.733	0.100
462.900	-8.928	0.100
463.000	-5.964	0.100
463.100	-10.050	0.100
463.200	-12.000	0.100
463.300	-5.430	0.100
463.400	0.886	0.100
463.500	-8.547	0.100
463.600	-8.149	0.100
463.700	-9.233	0.100
463.800	-8.019	0.100
463.900	-11.801	0.100
464.000	-3.517	0.100
464.100	-0.602	0.100
464.200	-7.250	0.100
464.300	-11.918	0.100
464.400	-7.904	0.100
464.500	-8.188	0.100
464.600	-4.659	0.100
464.700	-7.869	0.100
464.800	-0.854	0.100
464.900	-11.584	0.100
465.000	-8.671	0.100
465.100	-4.475	0.100
465.200	-1.723	0.100
465.300	-5.588	0.100
465.400	-7.619	0.100
465.500	-12.330	0.100
465.600	-9.606	0.100
465.700	-10.455	0.100
465.800	2.031	0.100
465.900	-14.445	0.100
466.000	-3.455	0.100
466.100	-3.992	0.100
466.200	-9.398	0.100
466.300	-3.413	0.100
466.400	-8.601	0.100
466.500	-3.716	0.100
466.600	-1.708	0.100
466.700	-7.487	0.100
466.800	-8.272	0.100
466.900	-15.372	0.100
467.000	-11.361	0.100
467.100	0.245	0.100
467.200	-2.750	0.100
467.300	-9.728	0.100
467.400	-6.591	0.100
467.500	-10.862	0.100
467.600	2.010	0.100
467.700	-10.938	0.100
467.800	-4.748	0.100
467.900	-5.690	0.100
468.000	-1.928	0.100
468.100	-18.099	0.100
468.200	5.097	0.100
468.300	-9.726	0.100
468.400	-7.865	0.100
468.500	-5.729	0.100
468.600	-11.628	0.100
468.700	-6.425	0.100
468.800	0.673	0.100
468.900	-14.126	0.100
469.000	-3.429	0.100
469.100	-2.674	0.100
469.200	-15.639	0.100
469.300	-8.450	0.100
469.400	-8.335	0.100
469.500	-6.074	0.100
469.600	-5.915	0.100
469.700	-8.435	0.100
469.800	-8.472	0.100
469.900	-6.568	0.100
470.000	-7.507	0.100
470.100	-7.576	0.100
470.200	-4.268	0.100
470.300	-8.482	0.100
470.400	-13.040	0.100
470.500	-9.391	0.100
470.600	-4.721	0.100
470.700	-6.733	0.100
470.800	2.619	0.100
470.900	-1.145	0.100
471.000	-4.855	0.100
471.100	-14.922	0.100
471.200	-1.220	0.100
471.300	-8.215	0.100
471.400	-7.804	0.100
471.500	-9.242	0.100
471.600	-6.284	0.100
471.700	-2.169	0.100
471.800	-4.738	0.100
471.900	-2.173	0.100
472.000	-9.871	0.100
472.100	0.784	0.100
472.200	-8.535	0.100
472.300	-10.530	0.100
472.400	-7.471	0.100
472.500	0.523	0.100
472.600	-7.410	0.100
472.700	-10.766	0.100
472.800	-2.612	0.100
472.900	-5.103	0.100
473.000	-15.465	0.100
473.100	-5.724	0.100
473.200	0.637	0.100
473.300	2.820	0.100
473.400	-10.127	0.100
473.500	-7.225	0.100
473.600	0.144	0.100
473.700	-15.438	0.100
473.800	-6.195	0.100
473.900	-8.210	0.100
474.000	-11.382	0.100
474.100	-6.298	0.100
474.200	-0.442	0.100
474.300	-8.246	0.100
474.400	-15.079	0.100
474.500	-1.020	0.100
474.600	-3.236	0.100
474.700	-8.944	0.100
474.800	-16.673	0.100
474.900	-1.086	0.100
475.000	-3.598	0.100
475.100	-6.390	0.100
475.200	-0.699	0.100
475.300	-3.040	0.100
475.400	-15.470	0.100
475.500	-1.697	0.100
475.600	0.301	0.100
475.700	-2.528	0.100
475.800	-14.760	0.100
475.900	-9.595	0.100
476.000	-15.586	0.100
476.100	-9.639	0.100
476.200	-5.388	0.100
476.300	-5.538	0.100
476.400	-9.551	0.100
476.500	1.892	0.100
476.600	-1.353	0.100
476.700	-6.943	0.100
476.800	-8.869	0.100
476.900	-8.162	0.100
477.000	-1.515	0.100
477.100	-10.488	0.100
477.200	-7.349	0.100
477.300	2.961	0.100
477.400	-3.092	0.100
477.500	-14.977	0.100
477.600	-9.446	0.100
477.700	-7.349	0.100
477.800	-2.773	0.100
477.900	-15.078	0.100
478.000	-11.193	0.100
478.100	-7.284	0.100
478.200	2.690	0.100
478.300	4.907	0.100
478.400	-10.566	0.100
478.500	-7.023	0.100
478.600	-7.653	0.100
478.700	-3.679	0.100
478.800	-4.107	0.100
478.900	0.103	0.100
479.000	-8.299	0.100
479.100	-6.194	0.100
479.200	-0.534	0.100
479.300	-1.460	0.100
479.400	-11.153	0.100
479.500	-6.314	0.100
479.600	-9.237	0.100
479.700	-5.253	0.100
479.800	-5.643	0.100
479.900	-5.816	0.100
480.000	-12.870	0.100
480.100	-7.246	0.100
480.200	-9.502	0.100
480.300	-3.920	0.100
480.400	-14.284	0.100
480.500	1.339	0.100
480.600	0.598	0.100
480.700	5.169	0.100
480.800	12.421	0.100
480.900	0.108	0.100
481.000	5.029	0.100
481.100	5.091	0.100
481.200	13.872	0.100
481.300	18.455	0.100
481.400	-0.364	0.100
481.500	16.992	0.100
481.600	27.889	0.100
481.700	17.430	0.100
481.800	10.449	0.100
481.900	29.078	0.100
482.000	17.940	0.100
482.100	13.078	0.100
482.200	16.386	0.100
482.300	14.068	0.100
482.400	15.400	0.100
482.500	14.467	0.100
482.600	18.865	0.100
482.700	6.917	0.100
482.800	9.018	0.100
482.900	16.330	0.100
483.000	11.486	0.100
483.100	10.571	0.100
483.200	19.306	0.100
483.300	19.930	0.100
483.400	19.897	0.100
483.500	16.167	0.100
483.600	15.434	0.100
483.700	23.625	0.100
483.800	16.929	0.100
483.900	7.296	0.100
484.000	9.722	0.100
484.100	13.864	0.100
484.200	4.306	0.100
484.300	13.070	0.100
484.400	15.802	0.100
484.500	13.978	0.100
484.600	17.775	0.100
484.700	3.259	0.100
484.800	10.188	0.100
484.900	11.307	0.100
485.000	17.569	0.100
485.100	8.701	0.100
485.200	17.249	0.100
485.300	9.435	0.100
485.400	4.033	0.100
485.500	6.774	0.100
485.600	3.268	0.100
485.700	5.983	0.100
485.800	9.450	0.100
485.900	2.300	0.100
486.000	-1.733	0.100
486.100	4.325	0.100
486.200	13.155	0.100
486.300	9.521	0.100
486.400	9.237	0.100
486.500	10.582	0.100
486.600	2.853	0.100
486.700	1.544	0.100
486.800	-2.824	0.100
486.900	8.921	0.100
487.000	9.828	0.100
487.100	-7.338	0.100
487.200	2.075	0.100
487.300	10.598	0.100
487.400	10.562	0.100
487.500	8.711	0.100
487.600	3.208	0.100
487.700	3.244	0.100
487.800	2.409	0.100
487.900	6.549	0.100
488.000	0.033	0.100
488.100	12.682	0.100
488.200	12.711	0.100
488.300	8.694	0.100
488.400	14.232	0.100
488.500	7.268	0.100
488.600	2.127	0.100
488.700	10.353	0.100
488.800	6.816	0.100
488.900	6.516	0.100
489.000	5.733	0.100
489.100	4.954	0.100
489.200	14.497	0.100
489.300	14.116	0.100
489.400	0.939	0.100
489.500	3.088	0.100
489.600	2.170	0.100
489.700	14.418	0.100
489.800	5.079	0.100
489.900	11.727	0.100
490.000	10.843	0.100
490.100	7.748	0.100
490.200	-2.967	0.100
490.300	7.225	0.100
490.400	20.207	0.100
490.500	10.848	0.100
490.600	7.221	0.100
490.700	8.718	0.100
490.800	3.880	0.100
490.900	14.361	0.100
491.000	9.030	0.100
491.100	11.385	0.100
491.200	11.027	0.100
491.300	14.310	0.100
491.400	-1.271	0.100
491.500	10.666	0.100
491.600	10.497	0.100
491.700	14.165	0.100
491.800	1.863	0.100
491.900	12.359	0.100
492.000	19.071	0.100
492.100	5.490	0.100
492.200	9.022	0.100
492.300	5.332	0.100
492.400	0.256	0.100
492.500	16.989	0.100
492.600	14.291	0.100
492.700	5.251	0.100
492.800	11.418	0.100
492.900	9.643	0.100
493.000	20.017	0.100
493.100	9.057	0.100
493.200	15.660	0.100
493.300	6.297	0.100
493.400	14.116	0.100
493.500	16.329	0.100
493.600	7.638	0.100
493.700	15.394	0.100
493.800	12.396	0.100
493.900	16.776	0.100
494.000	21.378	0.100
494.100	0.914	0.100
494.200	12.590	0.100
494.300	20.421	0.100
494.400	17.899	0.100
494.500	22.581	0.100
494.600	15.425	0.100
494.700	22.327	0.100
494.800	17.050	0.100
494.900	5.200	0.100
495.000	16.667	0.100
495.100	20.336	0.100
495.200	13.854	0.100
495.300	14.597	0.100
495.400	15.071	0.100
495.500	19.121	0.100
495.600	18.019	0.100
495.700	22.467	0.100
495.800	11.961	0.100
495.900	5.118	0.100
496.000	13.884	0.100
496.100	17.493	0.100
496.200	15.403	0.100
496.300	20.927	0.100
496.400	11.891	0.100
496.500	17.214	0.100
496.600	6.122	0.100
496.700	18.143	0.100
496.800	14.732	0.100
496.900	16.682	0.100
497.000	16.210	0.100
497.100	12.168	0.100
497.200	13.457	0.100
497.300	18.224	0.100
497.400	16.471	0.100
497.500	16.841	0.100
497.600	16.272	0.100
497.700	19.250	0.100
497.800	14.080	0.100
497.900	12.330	0.100
498.000	18.504	0.100
498.100	15.191	0.100
498.200	14.894	0.100
498.300	13.575	0.100
498.400	21.363	0.100
498.500	9.973	0.100
498.600	15.880	0.100
498.700	20.816	0.100
498.800	19.061	0.100
498.900	18.850	0.100
499.000	19.803	0.100
499.100	9.386	0.100
499.200	10.668	0.100
499.300	12.980	0.100
499.400	18.495	0.100
499.500	13.476	0.100
499.600	20.155	0.100
499.700	17.335	0.100
499.800	13.351	0.100
499.900	31.541	0.100
500.000	24.673	0.100
500.100	13.013	0.100
500.200	13.599	0.100
500.300	25.410	0.100
500.400	18.864	0.100
500.500	25.306	0.100
500.600	16.569	0.100
500.700	15.685	0.100
500.800	20.211	0.100
500.900	17.576	0.100
501.000	21.433	0.100
501.100	20.959	0.100
501.200	22.520	0.100
501.300	6.379	0.100
501.400	18.034	0.100
501.500	21.220	0.100
501.600	5.559	0.100
501.700	9.628	0.100
501.800	24.092	0.100
501.900	15.795	0.100
502.000	19.796	0.100
502.100	13.750	0.100
502.200	13.934	0.100
502.300	20.760	0.100
502.400	14.509	0.100
502.500	14.594	0.100
502.600	16.106	0.100
502.700	11.568	0.100
502.800	16.870	0.100
502.900	21.501	0.100
503.000	8.269	0.100
503.100	22.005	0.100
503.200	17.103	0.100
503.300	9.636	0.100
503.400	23.674	0.100
503.500	15.192	0.100
503.600	18.812	0.100
503.700	20.300	0.100
503.800	18.986	0.100
503.900	18.958	0.100
504.000	18.004	0.100
504.100	10.275	0.100
504.200	12.725	0.100
504.300	22.413	0.100
504.400	8.806	0.100
504.500	30.357	0.100
504.600	19.680	0.100
504.700	17.833	0.100
504.800	15.794	0.100
504.900	7.336	0.100
505.000	23.326	0.100
505.100	15.559	0.100
505.200	18.782	0.100
505.300	11.390	0.100
505.400	14.046	0.100
505.500	15.553	0.100
505.600	17.009	0.100
505.700	19.167	0.100
505.800	16.889	0.100
505.900	10.109	0.100
506.000	12.527	0.100
506.100	16.326	0.100
506.200	12.327	0.100
506.300	12.933	0.100
506.400	21.549	0.100
506.500	19.996	0.100
506.600	18.541	0.100
506.700	14.418	0.100
506.800	16.246	0.100
506.900	13.424	0.100
507.000	20.952	0.100
507.100	17.165	0.100
507.200	12.629	0.100
507.300	16.981	0.100
507.400	17.165	0.100
507.500	15.665	0.100
507.600	19.040	0.100
507.700	12.192	0.100
507.800	10.923	0.100
507.900	12.785	0.100
508.000	20.424	0.100
508.100	17.573	0.100
508.200	7.110	0.100
508.300	14.012	0.100
508.400	9.756	0.100
508.500	9.892	0.100
508.600	20.423	0.100
508.700	22.470	0.100
508.800	16.428	0.100
508.900	17.379	0.100
509.000	9.418	0.100
509.100	19.519	0.100
509.200	19.325	0.100
509.300	19.328	0.100
509.400	20.595	0.100
509.500	19.486	0.100
509.600	14.645	0.100
509.700	13.311	0.100
509.800	10.665	0.100
509.900	15.460	0.100
510.000	13.150	0.100
510.100	18.992	0.100
510.200	10.674	0.100
510.300	0.723	0.100
510.400	9.596	0.100
510.500	19.196	0.100
510.600	10.029	0.100
510.700	13.686	0.100
510.800	13.848	0.100
510.900	13.896	0.100
511.000	11.986	0.100
511.100	12.229	0.100
511.200	12.480	0.100
511.300	14.946	0.100
511.400	12.263	0.100
511.500	21.371	0.100
511.600	20.326	0.100
511.700	19.444	0.100
511.800	17.959	0.100
511.900	10.448	0.100
512.000	13.871	0.100
512.100	12.290	0.100
512.200	21.096	0.100
512.300	11.413	0.100
512.400	23.110	0.100
512.500	14.732	0.100
512.600	7.670	0.100
512.700	17.377	0.100
512.800	11.086	0.100
512.900	9.824	0.100
513.000	10.087	0.100
513.100	15.806	0.100
513.200	22.347	0.100
513.300	15.645	0.100
513.400	13.857	0.100
513.500	4.823	0.100
513.600	15.777	0.100
513.700	10.239	0.100
513.800	14.881	0.100
513.900	23.509	0.100
514.000	16.768	0.100
514.100	14.152	0.100
514.200	11.132	0.100
514.300	10.311	0.100
514.400	6.850	0.100
514.500	13.704	0.100
514.600	5.541	0.100
514.700	22.727	0.100
514.800	17.030	0.100
514.900	18.076	0.100
515.000	16.023	0.100
515.100	15.844	0.100
515.200	7.357	0.100
515.300	9.376	0.100
515.400	22.460	0.100
515.500	22.521	0.100
515.600	3.833	0.100
515.700	14.546	0.100
515.800	20.575	0.100
515.900	14.479	0.100
516.000	15.652	0.100
516.100	4.740	0.100
516.200	14.146	0.100
516.300	15.778	0.100
516.400	8.298	0.100
516.500	14.205	0.100
516.600	16.022	0.100
516.700	17.290	0.100
516.800	19.791	0.100
516.900	13.949	0.100
517.000	12.533	0.100
517.100	20.153	0.100
517.200	14.062	0.100
517.300	13.429	0.100
517.400	12.871	0.100
517.500	9.953	0.100
517.600	19.276	0.100
517.700	16.846	0.100
517.800	22.408	0.100
517.900	17.180	0.100
518.000	7.477	0.100
518.100	21.181	0.100
518.200	13.776	0.100
518.300	11.340	0.100
518.400	14.601	0.100
518.500	22.572	0.100
518.600	11.996	0.100
518.700	13.686	0.100
518.800	10.176	0.100
518.900	11.818	0.100
519.000	12.342	0.100
519.100	13.511	0.100
519.200	5.311	0.100
519.300	12.867	0.100
519.400	16.698	0.100
519.500	13.686	0.100
519.600	17.891	0.100
519.700	16.742	0.100
519.800	6.708	0.100
519.900	16.211	0.100
520.000	22.735	0.100
520.100	14.064	0.100
520.200	15.357	0.100
520.300	11.288	0.100
520.400	11.332	0.100
520.500	13.175	0.100
520.600	21.973	0.100
520.700	13.098	0.100
520.800	10.271	0.100
520.900	8.179	0.100
521.000	9.552	0.100
521.100	21.733	0.100
521.200	17.123	0.100
521.300	18.371	0.100
521.400	17.195	0.100
521.500	16.600	0.100
521.600	12.784	0.100
521.700	0.540	0.100
521.800	26.447	0.100
521.900	16.489	0.100
522.000	16.508	0.100
522.100	9.310	0.100
522.200	11.855	0.100
522.300	5.438	0.100
522.400	11.750	0.100
522.500	16.157	0.100
522.600	9.092	0.100
522.700	9.356	0.100
522.800	22.313	0.100
522.900	13.934	0.100
523.000	18.731	0.100
523.100	5.742	0.100
523.200	20.533	0.100
523.300	22.047	0.100
523.400	12.892	0.100
523.500	11.714	0.100
523.600	15.977	0.100
523.700	15.642	0.100
523.800	10.249	0.100
523.900	13.300	0.100
524.000	10.601	0.100
524.100	13.525	0.100
524.200	17.412	0.100
524.300	16.320	0.100
524.400	20.270	0.100
524.500	12.739	0.100
524.600	13.368	0.100
524.700	7.880	0.100
524.800	18.854	0.100
524.900	17.667	0.100
525.000	12.042	0.100
525.100	8.404	0.100
525.200	5.658	0.100
525.300	24.065	0.100
525.400	20.416	0.100
525.500	13.674	0.100
525.600	8.822	0.100
525.700	13.222	0.100
525.800	7.376	0.100
525.900	20.179	0.100
526.000	19.147	0.100
526.100	19.816	0.100
526.200	11.783	0.100
526.300	5.709	0.100
526.400	-0.952	0.100
526.500	18.013	0.100
526.600	16.726	0.100
526.700	18.028	0.100
526.800	11.245	0.100
526.900	16.100	0.100
527.000	0.454	0.100
527.100	8.059	0.100
527.200	19.952	0.100
527.300	21.103	0.100
527.400	9.154	0.100
527.500	12.960	0.100
527.600	17.666	0.100
527.700	19.068	0.100
527.800	13.498	0.100
527.900	6.503	0.100
528.000	21.611	0.100
528.100	25.801	0.100
528.200	11.031	0.100
528.300	0.648	0.100
528.400	14.651	0.100
528.500	19.202	0.100
528.600	17.398	0.100
528.700	14.738	0.100
528.800	24.497	0.100
528.900	14.318	0.100
529.000	14.558	0.100
529.100	15.955	0.100
529.200	16.511	0.100
529.300	15.123	0.100
529.400	12.670	0.100
529.500	6.678	0.100
529.600	15.173	0.100
529.700	18.697	0.100
529.800	15.482	0.100
529.900	13.362	0.100
530.000	13.836	0.100
530.100	13.663	0.100
530.200	16.228	0.100
530.300	9.797	0.100
530.400	11.291	0.100
530.500	4.361	0.100
530.600	7.213	0.100
530.700	19.071	0.100
530.800	17.143	0.100
530.900	17.540	0.100
531.000	15.315	0.100
531.100	16.813	0.100
531.200	13.340	0.100
531.300	8.049	0.100
531.400	20.174	0.100
531.500	19.640	0.100
531.600	21.665	0.100
531.700	12.323	0.100
531.800	15.349	0.100
531.900	8.160	0.100
532.000	21.617	0.100
532.100	10.290	0.100
532.200	22.504	0.100
532.300	13.440	0.100
532.400	13.639	0.100
532.500	20.576	0.100
532.600	14.479	0.100
532.700	8.841	0.100
532.800	14.951	0.100
532.900	14.982	0.100
533.000	6.701	0.100
533.100	20.668	0.100
533.200	15.260	0.100
533.300	14.067	0.100
533.400	22.739	0.100
533.500	17.929	0.100
533.600	12.851	0.100
533.700	10.847	0.100
533.800	12.593	0.100
533.900	8.918	0.100
534.000	20.219	0.100
534.100	25.014	0.100
534.200	13.315	0.100
534.300	22.847	0.100
534.400	14.235	0.100
534.500	12.764	0.100
534.600	14.165	0.100
534.700	14.769	0.100
534.800	3.138	0.100
534.900	14.299	0.100
535.000	22.519	0.100
535.100	15.520	0.100
535.200	17.312	0.100
535.300	16.172	0.100
535.400	24.242	0.100
535.500	3.396	0.100
535.600	7.269	0.100
535.700	17.141	0.100
535.800	13.283	0.100
535.900	9.708	0.100
536.000	13.106	0.100
536.100	13.910	0.100
536.200	11.903	0.100
536.300	18.711	0.100
536.400	25.172	0.100
536.500	11.705	0.100
536.600	15.862	0.100
536.700	19.222	0.100
536.800	10.649	0.100
536.900	3.435	0.100
537.000	28.832	0.100
537.100	8.122	0.100
537.200	15.970	0.100
537.300	15.504	0.100
537.400	9.882	0.100
537.500	16.462	0.100
537.600	21.685	0.100
537.700	18.865	0.100
537.800	19.000	0.100
537.900	7.759	0.100
538.000	3.421	0.100
538.100	12.622	0.100
538.200	18.489	0.100
538.300	17.022	0.100
538.400	22.184	0.100
538.500	3.789	0.100
538.600	23.965	0.100
538.700	16.360	0.100
538.800	3.476	0.100
538.900	18.360	0.100
539.000	17.897	0.100
539.100	13.025	0.100
539.200	14.629	0.100
539.300	14.222	0.100
539.400	23.926	0.100
539.500	19.917	0.100
539.600	16.438	0.100
539.700	19.206	0.100
539.800	13.911	0.100
539.900	18.492	0.100
540.000	10.660	0.100
540.100	13.574	0.100
540.200	13.000	0.100
540.300	12.673	0.100
540.400	15.927	0.100
540.500	6.057	0.100
540.600	2.529	0.100
540.700	7.867	0.100
540.800	-0.501	0.100
540.900	9.331	0.100
541.000	-4.851	0.100
541.100	-8.349	0.100
541.200	-12.061	0.100
541.300	-1.475	0.100
541.400	-9.303	0.100
541.500	-9.417	0.100
541.600	-7.552	0.100
541.700	-1.738	0.100
541.800	-15.252	0.100
541.900	-24.576	0.100
542.000	-20.297	0.100
542.100	-17.018	0.100
542.200	-19.841	0.100
542.300	-16.688	0.100
542.400	-8.776	0.100
542.500	-12.228	0.100
542.600	-19.243	0.100
542.700	-15.407	0.100
542.800	-22.275	0.100
542.900	-15.733	0.100
543.000	-17.866	0.100
543.100	-20.698	0.100
543.200	-18.797	0.100
543.300	-25.948	0.100
543.400	-13.554	0.100
543.500	-19.437	0.100
543.600	-14.162	0.100
543.700	-21.369	0.100
543.800	-24.088	0.100
543.900	-23.347	0.100
544.000	-16.523	0.100
544.100	-9.356	0.100
544.200	-17.816	0.100
544.300	-18.481	0.100
544.400	-19.982	0.100
544.500	-16.460	0.100
544.600	-13.759	0.100
544.700	-14.961	0.100
544.800	-10.692	0.100
544.900	-11.150	0.100
545.000	-22.815	0.100
545.100	-11.210	0.100
545.200	-20.129	0.100
545.300	-17.787	0.100
545.400	-2.138	0.100
545.500	-9.719	0.100
545.600	-19.611	0.100
545.700	-7.520	0.100
545.800	-6.251	0.100
545.900	-14.990	0.100
546.000	-22.318	0.100
546.100	-14.413	0.100
546.200	-12.946	0.100
546.300	-3.826	0.100
546.400	-17.331	0.100
546.500	-14.761	0.100
546.600	-8.791	0.100
546.700	-9.887	0.100
546.800	-15.390	0.100
546.900	-20.544	0.100
547.000	-7.344	0.100
547.100	-5.096	0.100
547.200	-15.802	0.100
547.300	5.427	0.100
547.400	-2.158	0.100
547.500	-13.968	0.100
547.600	-9.960	0.100
547.700	-13.394	0.100
547.800	-9.015	0.100
547.900	-16.048	0.100
548.000	-7.646	0.100
548.100	-5.468	0.100
548.200	-5.599	0.100
548.300	-1.394	0.100
548.400	-4.293	0.100
548.500	-14.056	0.100
548.600	-2.288	0.100
548.700	-11.060	0.100
548.800	-3.357	0.100
548.900	-8.178	0.100
549.000	-3.088	0.100
549.100	-21.331	0.100
549.200	-8.101	0.100
549.300	-11.651	0.100
549.400	-11.362	0.100
549.500	-4.775	0.100
549.600	-11.931	0.100
549.700	-1.210	0.100
549.800	-16.255	0.100
549.900	-11.854	0.100
550.000	-8.914	0.100
550.100	-6.570	0.100
550.200	-9.458	0.100
550.300	-8.770	0.100
550.400	-11.308	0.100
550.500	-7.294	0.100
550.600	-8.999	0.100
550.700	-2.910	0.100
550.800	-3.543	0.100
550.900	3.936	0.100
551.000	-10.476	0.100
551.100	-10.321	0.100
551.200	-14.952	0.100
551.300	-5.507	0.100
551.400	-11.973	0.100
551.500	-4.514	0.100
551.600	-12.374	0.100
551.700	-12.116	0.100
551.800	-6.865	0.100
551.900	-12.228	0.100
552.000	-9.513	0.100
552.100	-7.561	0.100
552.200	-13.727	0.100
552.300	-13.477	0.100
552.400	-11.008	0.100
552.500	-12.065	0.100
552.600	-11.108	0.100
552.700	-13.678	0.100
552.800	-5.652	0.100
552.900	-9.730	0.100
553.000	-6.108	0.100
553.100	-16.439	0.100
553.200	-6.941	0.100
553.300	-7.282	0.100
553.400	-10.111	0.100
553.500	-13.008	0.100
553.600	-4.743	0.100
553.700	-5.084	0.100
553.800	-7.199	0.100
553.900	-12.297	0.100
554.000	-12.130	0.100
554.100	-4.685	0.100
554.200	-3.883	0.100
554.300	-9.352	0.100
554.400	-9.351	0.100
554.500	-2.103	0.100
554.600	-5.364	0.100
554.700	-3.511	0.100
554.800	-17.690	0.100
554.900	-12.970	0.100
555.000	-10.540	0.100
555.100	-14.496	0.100
555.200	-14.844	0.100
555.300	-1.025	0.100
555.400	-10.551	0.100
555.500	-8.222	0.100
555.600	-15.718	0.100
555.700	-13.559	0.100
555.800	-1.157	0.100
555.900	-5.132	0.100
556.000	-11.930	0.100
556.100	-6.924	0.100
556.200	-10.000	0.100
556.300	0.120	0.100
556.400	-12.428	0.100
556.500	-12.386	0.100
556.600	-11.180	0.100
556.700	-16.415	0.100
556.800	-9.674	0.100
556.900	-7.782	0.100
557.000	-10.539	0.100
557.100	-8.503	0.100
557.200	-11.435	0.100
557.300	-1.033	0.100
557.400	-7.891	0.100
557.500	-8.761	0.100
557.600	-9.634	0.100
557.700	-2.490	0.100
557.800	-5.505	0.100
557.900	-12.348	0.100
558.000	-4.998	0.100
558.100	-8.833	0.100
558.200	-13.139	0.100
558.300	2.954	0.100
558.400	-13.647	0.100
558.500	-7.526	0.100
558.600	-16.444	0.100
558.700	-7.926	0.100
558.800	-6.039	0.100
558.900	-9.642	0.100
559.000	-11.975	0.100
559.100	-13.669	0.100
559.200	-5.780	0.100
559.300	-7.025	0.100
559.400	-14.350	0.100
559.500	-12.872	0.100
559.600	-21.838	0.100
559.700	-2.489	0.100
559.800	-5.818	0.100
559.900	-15.975	0.100
560.000	-13.985	0.100
560.100	-9.129	0.100
560.200	-3.898	0.100
560.300	-3.862	0.100
560.400	-15.163	0.100
560.500	-3.616	0.100
560.600	-5.609	0.100
560.700	-5.680	0.100
560.800	-10.311	0.100
560.900	-8.233	0.100
561.000	-5.649	0.100
561.100	-15.996	0.100
561.200	-6.267	0.100
561.300	-7.205	0.100
561.400	-4.833	0.100
561.500	-8.742	0.100
561.600	-15.868	0.100
561.700	-8.523	0.100
561.800	-5.994	0.100
561.900	-11.374	0.100
562.000	-8.588	0.100
562.100	-10.992	0.100
562.200	-9.820	0.100
562.300	-10.742	0.100
562.400	-5.943	0.100
562.500	-9.883	0.100
562.600	-5.762	0.100
562.700	-10.386	0.100
562.800	-11.873	0.100
562.900	-6.837	0.100
563.000	-9.504	0.100
563.100	-11.822	0.100
563.200	-22.926	0.100
563.300	-5.533	0.100
563.400	0.696	0.100
563.500	-10.932	0.100
563.600	-6.575	0.100
563.700	-14.407	0.100
563.800	-14.984	0.100
563.900	-4.344	0.100
564.000	-6.785	0.100
564.100	-9.101	0.100
564.200	-4.411	0.100
564.300	-12.218	0.100
564.400	-12.168	0.100
564.500	-16.576	0.100
564.600	-2.029	0.100
564.700	-16.658	0.100
564.800	-0.644	0.100
564.900	-4.774	0.100
565.000	-7.917	0.100
565.100	-5.588	0.100
565.200	-8.833	0.100
565.300	-15.879	0.100
565.400	-12.245	0.100
565.500	-4.904	0.100
565.600	-14.384	0.100
565.700	-6.970	0.100
565.800	-4.905	0.100
565.900	-14.301	0.100
566.000	-16.786	0.100
566.100	-15.827	0.100
566.200	-8.974	0.100
566.300	-8.297	0.100
566.400	-2.517	0.100
566.500	-5.473	0.100
566.600	-19.978	0.100
566.700	-9.654	0.100
566.800	-9.514	0.100
566.900	-15.144	0.100
567.000	0.141	0.100
567.100	-8.730	0.100
567.200	-8.539	0.100
567.300	-9.558	0.100
567.400	-15.447	0.100
567.500	-4.879	0.100
567.600	-13.593	0.100
567.700	-12.362	0.100
567.800	-14.943	0.100
567.900	-13.773	0.100
568.000	-13.256	0.100
568.100	-11.404	0.100
568.200	-10.268	0.100
568.300	-0.785	0.100
568.400	-8.842	0.100
568.500	-13.222	0.100
568.600	-13.882	0.100
568.700	-15.667	0.100
568.800	-1.761	0.100
568.900	-11.937	0.100
569.000	-9.905	0.100
569.100	-11.278	0.100
569.200	-13.658	0.100
569.300	-15.011	0.100
569.400	-8.447	0.100
569.500	-15.053	0.100
569.600	-3.197	0.100
569.700	-3.755	0.100
569.800	-8.862	0.100
569.900	-10.656	0.100
570.000	-9.236	0.100
570.100	-8.740	0.100
570.200	-4.079	0.100
570.300	-5.115	0.100
570.400	-14.454	0.100
570.500	-10.323	0.100
570.600	-7.012	0.100
570.700	-10.519	0.100
570.800	-3.626	0.100
570.900	-16.906	0.100
571.000	-11.800	0.100
571.100	-8.909	0.100
571.200	-9.869	0.100
571.300	-9.690	0.100
571.400	-12.340	0.100
571.500	-17.538	0.100
571.600	-11.427	0.100
571.700	-8.459	0.100
571.800	-15.696	0.100
571.900	-7.724	0.100
572.000	-14.303	0.100
572.100	-4.432	0.100
572.200	-12.213	0.100
572.300	-12.282	0.100
572.400	-16.521	0.100
572.500	-6.158	0.100
572.600	-7.561	0.100
572.700	-14.342	0.100
572.800	-7.469	0.100
572.900	-4.689	0.100
573.000	-7.029	0.100
573.100	-13.068	0.100
573.200	-18.010	0.100
573.300	-15.229	0.100
573.400	-8.790	0.100
573.500	-15.887	0.100
573.600	-4.982	0.100
573.700	-11.721	0.100
573.800	-4.205	0.100
573.900	-9.527	0.100
574.000	-15.200	0.100
574.100	-11.469	0.100
574.200	-6.822	0.100
574.300	-6.186	0.100
574.400	-9.953	0.100
574.500	-16.198	0.100
574.600	-11.028	0.100
574.700	-16.840	0.100
574.800	-5.243	0.100
574.900	-7.717	0.100
575.000	-14.655	0.100
575.100	-11.020	0.100
575.200	-4.693	0.100
575.300	-12.003	0.100
575.400	-18.878	0.100
575.500	-13.011	0.100
575.600	-10.414	0.100
575.700	-2.903	0.100
575.800	-4.064	0.100
575.900	-9.080	0.100
576.000	-17.652	0.100
576.100	-8.854	0.100
576.200	-14.361	0.100
576.300	-11.793	0.100
576.400	-5.895	0.100
576.500	2.595	0.100
576.600	-9.848	0.100
576.700	-16.377	0.100
576.800	-10.679	0.100
576.900	-12.386	0.100
577.000	-4.599	0.100
577.100	-6.212	0.100
577.200	-10.047	0.100
577.300	-8.747	0.100
577.400	-15.961	0.100
577.500	-10.047	0.100
577.600	-7.066	0.100
577.700	-1.186	0.100
577.800	-6.088	0.100
577.900	-7.772	0.100
578.000	-13.809	0.100
578.100	-10.044	0.100
578.200	-12.735	0.100
578.300	-11.758	0.100
578.400	-11.574	0.100
578.500	-6.160	0.100
578.600	-13.457	0.100
578.700	4.164	0.100
578.800	-6.672	0.100
578.900	-13.417	0.100
579.000	-12.265	0.100
579.100	-12.307	0.100
579.200	-9.300	0.100
579.300	-10.447	0.100
579.400	-8.857	0.100
579.500	-6.091	0.100
579.600	-8.826	0.100
579.700	-14.426	0.100
579.800	-9.675	0.100
579.900	-5.638	0.100
580.000	-3.751	0.100
580.100	-8.431	0.100
580.200	-7.792	0.100
580.300	-9.617	0.100
580.400	-18.596	0.100
580.500	-9.254	0.100
580.600	-12.772	0.100
580.700	-6.889	0.100
580.800	-7.167	0.100
580.900	-11.128	0.100
581.000	-8.228	0.100
581.100	-7.433	0.100
581.200	-6.846	0.100
581.300	-9.884	0.100
581.400	-6.196	0.100
581.500	-4.865	0.100
581.600	-17.849	0.100
581.700	-7.057	0.100
581.800	-10.138	0.100
581.900	-4.309	0.100
582.000	-12.155	0.100
582.100	-14.134	0.100
582.200	-8.893	0.100
582.300	-9.936	0.100
582.400	-10.439	0.100
582.500	-19.821	0.100
582.600	-2.863	0.100
582.700	-12.359	0.100
582.800	-3.279	0.100
582.900	-7.500	0.100
583.000	-11.147	0.100
583.100	-18.465	0.100
583.200	-10.162	0.100
583.300	-11.873	0.100
583.400	-3.789	0.100
583.500	-9.203	0.100
583.600	-2.833	0.100
583.700	-6.424	0.100
583.800	-18.752	0.100
583.900	-8.144	0.100
584.000	-10.066	0.100
584.100	-12.884	0.100
584.200	-5.117	0.100
584.300	-11.777	0.100
584.400	-6.560	0.100
584.500	-8.309	0.100
584.600	-7.964	0.100
584.700	-6.493	0.100
584.800	-12.006	0.100
584.900	-9.659	0.100
585.000	-9.101	0.100
585.100	-10.106	0.100
585.200	-10.671	0.100
585.300	-10.972	0.100
585.400	-12.637	0.100
585.500	-14.062	0.100
585.600	-11.504	0.100
585.700	-8.889	0.100
585.800	-6.947	0.100
585.900	-3.993	0.100
586.000	-14.706	0.100
586.100	-7.810	0.100
586.200	-12.941	0.100
586.300	-5.805	0.100
586.400	-10.310	0.100
586.500	-13.399	0.100
586.600	-10.025	0.100
586.700	-6.634	0.100
586.800	-7.632	0.100
586.900	-3.015	0.100
587.000	-16.741	0.100
587.100	-6.662	0.100
587.200	-17.538	0.100
587.300	-6.648	0.100
587.400	-1.461	0.100
587.500	-11.789	0.100
587.600	-7.093	0.100
587.700	-16.859	0.100
587.800	-4.032	0.100
587.900	-10.968	0.100
588.000	-4.945	0.100
588.100	-8.483	0.100
588.200	-3.168	0.100
588.300	-7.505	0.100
588.400	-14.419	0.100
588.500	-9.913	0.100
588.600	-7.620	0.100
588.700	-16.544	0.100
588.800	-2.912	0.100
588.900	-7.952	0.100
589.000	-7.156	0.100
589.100	-12.803	0.100
589.200	-15.784	0.100
589.300	-8.578	0.100
589.400	-6.759	0.100
589.500	-12.809	0.100
589.600	-16.767	0.100
589.700	-10.772	0.100
589.800	-11.967	0.100
589.900	-10.131	0.100
590.000	-3.873	0.100
590.100	-11.831	0.100
590.200	-0.267	0.100
590.300	-14.310	0.100
590.400	-0.573	0.100
590.500	-6.590	0.100
590.600	-3.679	0.100
590.700	-14.320	0.100
590.800	-8.285	0.100
590.900	-8.694	0.100
591.000	-5.370	0.100
591.100	-2.306	0.100
591.200	-15.979	0.100
591.300	-8.185	0.100
591.400	-5.647	0.100
591.500	-11.722	0.100
591.600	-16.472	0.100
591.700	-12.352	0.100
591.800	-15.251	0.100
591.900	-0.670	0.100
592.000	-9.847	0.100
592.100	-12.132	0.100
592.200	-12.630	0.100
592.300	-9.222	0.100
592.400	-21.362	0.100
592.500	-8.573	0.100
592.600	-5.452	0.100
592.700	-7.409	0.100
592.800	-7.867	0.100
592.900	-15.148	0.100
593.000	-14.281	0.100
593.100	-9.024	0.100
593.200	-10.891	0.100
593.300	-7.356	0.100
593.400	-9.862	0.100
593.500	-11.929	0.100
593.600	-14.906	0.100
593.700	-14.308	0.100
593.800	3.478	0.100
593.900	-4.867	0.100
594.000	-9.694	0.100
594.100	-9.225	0.100
594.200	-12.528	0.100
594.300	-14.318	0.100
594.400	-13.344	0.100
594.500	-11.153	0.100
594.600	0.033	0.100
594.700	0.006	0.100
594.800	-8.726	0.100
594.900	-13.023	0.100
595.000	2.511	0.100
595.100	-9.208	0.100
595.200	-0.674	0.100
595.300	-12.470	0.100
595.400	-7.166	0.100
595.500	-8.757	0.100
595.600	-18.437	0.100
595.700	0.321	0.100
595.800	-9.188	0.100
595.900	-2.866	0.100
596.000	-8.056	0.100
596.100	-6.603	0.100
596.200	-9.823	0.100
596.300	-15.200	0.100
596.400	-10.868	0.100
596.500	-10.928	0.100
596.600	-11.683	0.100
596.700	-9.359	0.100
596.800	-14.640	0.100
596.900	3.933	0.100
597.000	-3.632	0.100
597.100	-9.881	0.100
597.200	0.700	0.100
597.300	-3.734	0.100
597.400	-23.129	0.100
597.500	-9.981	0.100
597.600	-21.134	0.100
597.700	-5.547	0.100
597.800	-14.678	0.100
597.900	-11.680	0.100
598.000	-7.125	0.100
598.100	-5.454	0.100
598.200	-6.981	0.100
598.300	-8.968	0.100
598.400	-13.853	0.100
598.500	-4.499	0.100
598.600	-6.343	0.100
598.700	-7.044	0.100
598.800	-11.633	0.100
598.900	-3.819	0.100
599.000	-12.286	0.100
599.100	-11.576	0.100
599.200	-2.396	0.100
599.300	-3.525	0.100
599.400	-19.655	0.100
599.500	-10.599	0.100
599.600	-6.869	0.100
599.700	-7.529	0.100
599.800	-8.429	0.100
599.900	-2.813	0.100
600.000	-15.055	0.100
600.100	-15.485	0.100
600.200	-6.924	0.100
600.300	-6.551	0.100
600.400	-7.156	0.100
600.500	-10.671	0.100
600.600	-5.767	0.100
600.700	-4.620	0.100
600.800	-7.941	0.100
600.900	-3.929	0.100
601.000	-4.434	0.100
601.100	-8.357	0.100
601.200	-14.135	0.100
601.300	-13.437	0.100
601.400	-7.835	0.100
601.500	-5.369	0.100
601.600	-12.644	0.100
601.700	-0.566	0.100
601.800	-11.990	0.100
601.900	-8.828	0.100
602.000	-7.359	0.100
602.100	-7.348	0.100
602.200	-13.440	0.100
602.300	-9.174	0.100
602.400	-2.580	0.100
602.500	-3.883	0.100
602.600	-5.737	0.100
602.700	-4.896	0.100
602.800	-11.196	0.100
602.900	-5.111	0.100
603.000	-7.763	0.100
603.100	-9.276	0.100
603.200	1.299	0.100
603.300	-9.242	0.100
603.400	-11.437	0.100
603.500	-8.746	0.100
603.600	-12.732	0.100
603.700	-9.870	0.100
603.800	-8.184	0.100
603.900	-10.845	0.100
604.000	-10.753	0.100
604.100	-5.907	0.100
604.200	-9.756	0.100
604.300	-8.873	0.100
604.400	3.855	0.100
604.500	-14.813	0.100
604.600	-5.149	0.100
604.700	-9.666	0.100
604.800	-7.068	0.100
604.900	-5.349	0.100
605.000	-11.425	0.100
605.100	-7.572	0.100
605.200	-5.924	0.100
605.300	-5.833	0.100
605.400	-6.573	0.100
605.500	-6.880	0.100
605.600	-9.151	0.100
605.700	-9.299	0.100
605.800	-11.564	0.100
605.900	-17.632	0.100
606.000	-4.745	0.100
606.100	-0.451	0.100
606.200	-6.995	0.100
606.300	-11.681	0.100
606.400	-7.069	0.100
606.500	-12.396	0.100
606.600	-15.789	0.100
606.700	-3.017	0.100
606.800	-5.576	0.100
606.900	-8.271	0.100
607.000	-10.289	0.100
607.100	-8.056	0.100
607.200	-6.609	0.100
607.300	-0.348	0.100
607.400	-11.720	0.100
607.500	-17.885	0.100
607.600	1.109	0.100
607.700	-11.436	0.100
607.800	-3.184	0.100
607.900	-9.170	0.100
608.000	-7.155	0.100
608.100	0.272	0.100
608.200	-7.145	0.100
608.300	-13.754	0.100
608.400	-7.401	0.100
608.500	-1.916	0.100
608.600	-6.755	0.100
608.700	-3.224	0.100
608.800	-9.163	0.100
608.900	-9.346	0.100
609.000	-9.517	0.100
609.100	-2.583	0.100
609.200	-9.248	0.100
609.300	-8.293	0.100
609.400	-12.809	0.100
609.500	-0.533	0.100
609.600	-5.746	0.100
609.700	-9.499	0.100
609.800	-11.100	0.100
609.900	-3.665	0.100
610.000	-10.466	0.100
610.100	-7.292	0.100
610.200	-6.296	0.100
610.300	-2.497	0.100
610.400	-13.510	0.100
610.500	-6.827	0.100
610.600	-14.143	0.100
610.700	-12.738	0.100
610.800	-5.666	0.100
610.900	-5.068	0.100
611.000	-3.023	0.100
611.100	-3.421	0.100
611.200	-12.365	0.100
611.300	-7.371	0.100
611.400	-0.321	0.100
611.500	-7.982	0.100
611.600	-7.567	0.100
611.700	-7.437	0.100
611.800	-5.944	0.100
611.900	-4.183	0.100
612.000	-2.397	0.100
612.100	-3.313	0.100
612.200	-9.817	0.100
612.300	-3.273	0.100
612.400	-3.942	0.100
612.500	-19.933	0.100
612.600	-11.990	0.100
612.700	0.868	0.100
612.800	-4.499	0.100
612.900	-7.272	0.100
613.000	-8.399	0.100
613.100	-9.918	0.100
613.200	1.493	0.100
613.300	-9.264	0.100
613.400	-14.848	0.100
613.500	-4.877	0.100
613.600	-8.858	0.100
613.700	-0.894	0.100
613.800	-6.080	0.100
613.900	-14.018	0.100
614.000	-5.609	0.100
614.100	-10.736	0.100
614.200	-7.983	0.100
614.300	-8.394	0.100
614.400	-12.050	0.100
614.500	-4.334	0.100
614.600	-2.533	0.100
614.700	-10.381	0.100
614.800	-10.999	0.100
614.900	-8.365	0.100
615.000	-4.401	0.100
615.100	-2.334	0.100
615.200	-1.024	0.100
615.300	-10.021	0.100
615.400	-13.631	0.100
615.500	-8.858	0.100
615.600	-6.190	0.100
615.700	-9.993	0.100
615.800	-0.795	0.100
615.900	-4.924	0.100
616.000	-12.696	0.100
616.100	-5.573	0.100
616.200	-7.164	0.100
616.300	-8.776	0.100
616.400	-5.218	0.100
616.500	-10.880	0.100
616.600	-0.314	0.100
616.700	-12.766	0.100
616.800	-13.845	0.100
616.900	-9.355	0.100
617.000	-4.293	0.100
617.100	-10.397	0.100
617.200	-6.033	0.100
617.300	-4.563	0.100
617.400	0.039	0.100
617.500	-7.155	0.100
617.600	-10.472	0.100
617.700	-19.014	0.100
617.800	2.554	0.100
617.900	-5.686	0.100
618.000	2.636	0.100
618.100	-10.989	0.100
618.200	-6.171	0.100
618.300	-3.382	0.100
618.400	-16.896	0.100
618.500	-7.758	0.100
618.600	4.436	0.100
618.700	-6.834	0.100
618.800	-4.415	0.100
618.900	-4.994	0.100
619.000	-10.736	0.100
619.100	-11.707	0.100
619.200	-6.913	0.100
619.300	-4.724	0.100
619.400	-10.037	0.100
619.500	2.037	0.100
619.600	-11.653	0.100
619.700	-8.217	0.100
619.800	-8.135	0.100
619.900	-7.278	0.100
620.000	-18.244	0.100
620.100	-8.642	0.100
620.200	-5.690	0.100
620.300	-3.900	0.100
620.400	-1.396	0.100
620.500	-11.323	0.100
620.600	-1.347	0.100
620.700	-7.093	0.100
620.800	-13.164	0.100
620.900	-10.721	0.100
621.000	-5.048	0.100
621.100	-3.990	0.100
621.200	-2.585	0.100
621.300	-8.059	0.100
621.400	-6.188	0.100
621.500	-7.295	0.100
621.600	-5.187	0.100
621.700	-8.693	0.100
621.800	-5.048	0.100
621.900	-3.632	0.100
622.000	-1.053	0.100
622.100	-4.297	0.100
622.200	-11.059	0.100
622.300	-10.221	0.100
622.400	-1.906	0.100
622.500	-5.027	0.100
622.600	-6.119	0.100
622.700	-14.175	0.100
622.800	-8.494	0.100
622.900	-3.987	0.100
623.000	-6.556	0.100
623.100	-6.542	0.100
623.200	-7.945	0.100
623.300	-16.925	0.100
623.400	-7.638	0.100
623.500	-2.858	0.100
623.600	-5.926	0.100
623.700	-5.534	0.100
623.800	-4.297	0.100
623.900	-6.430	0.100
624.000	-12.810	0.100
624.100	-0.811	0.100
624.200	-1.271	0.100
624.300	-4.185	0.100
624.400	-10.408	0.100
624.500	-7.680	0.100
624.600	-1.202	0.100
624.700	-5.217	0.100
624.800	-9.452	0.100
624.900	-8.805	0.100
625.000	-3.338	0.100
625.100	-3.486	0.100
625.200	-2.193	0.100
625.300	-6.493	0.100
625.400	-6.648	0.100
625.500	-0.482	0.100
625.600	-3.844	0.100
625.700	-6.170	0.100
625.800	-5.206	0.100
625.900	-4.786	0.100
626.000	-11.451	0.100
626.100	-4.550	0.100
626.200	-7.836	0.100
626.300	-1.095	0.100
626.400	-8.819	0.100
626.500	-6.119	0.100
626.600	-9.099	0.100
626.700	-7.875	0.100
626.800	-7.901	0.100
626.900	-10.003	0.100
627.000	-8.506	0.100
627.100	-9.393	0.100
627.200	-2.001	0.100
627.300	-6.199	0.100
627.400	-11.536	0.100
627.500	-1.802	0.100
627.600	1.485	0.100
627.700	-6.681	0.100
627.800	-5.414	0.100
627.900	-5.929	0.100
628.000	-10.963	0.100
628.100	-4.708	0.100
628.200	-9.694	0.100
628.300	-2.874	0.100
628.400	-7.057	0.100
628.500	1.645	0.100
628.600	-16.604	0.100
628.700	-1.388	0.100
628.800	-4.381	0.100
628.900	-6.411	0.100
629.000	-12.505	0.100
629.100	-11.247	0.100
629.200	-11.020	0.100
629.300	-8.430	0.100
629.400	-7.578	0.100
629.500	-2.316	0.100
629.600	-5.244	0.100
629.700	-8.233	0.100
629.800	-8.165	0.100
629.900	-4.789	0.100
630.000	-7.593	0.100
630.100	-4.994	0.100
630.200	-5.610	0.100
630.300	-15.750	0.100
630.400	-6.885	0.100
630.500	-7.604	0.100
630.600	-2.451	0.100
630.700	-3.772	0.100
630.800	4.050	0.100
630.900	5.338	0.100
631.000	14.567	0.100
631.100	8.222	0.100
631.200	17.478	0.100
631.300	17.546	0.100
631.400	16.425	0.100
631.500	17.216	0.100
631.600	11.528	0.100
631.700	17.410	0.100
631.800	12.602	0.100
631.900	16.938	0.100
632.000	17.583	0.100
632.100	15.671	0.100
632.200	19.084	0.100
632.300	13.325	0.100
632.400	12.324	0.100
632.500	17.179	0.100
632.600	25.527	0.100
632.700	16.619	0.100
632.800	10.506	0.100
632.900	28.518	0.100
633.000	17.004	0.100
633.100	22.331	0.100
633.200	7.543	0.100
633.300	12.114	0.100
633.400	13.202	0.100
633.500	13.332	0.100
633.600	20.453	0.100
633.700	18.404	0.100
633.800	21.323	0.100
633.900	11.294	0.100
634.000	9.718	0.100
634.100	13.378	0.100
634.200	11.619	0.100
634.300	17.344	0.100
634.400	11.480	0.100
634.500	10.039	0.100
634.600	7.885	0.100
634.700	16.517	0.100
634.800	9.430	0.100
634.900	8.077	0.100
635.000	6.487	0.100
635.100	15.504	0.100
635.200	4.819	0.100
635.300	14.484	0.100
635.400	16.684	0.100
635.500	13.598	0.100
635.600	2.098	0.100
635.700	2.318	0.100
635.800	14.252	0.100
635.900	0.349	0.100
636.000	3.467	0.100
636.100	11.779	0.100
636.200	9.725	0.100
636.300	-0.553	0.100
636.400	-1.749	0.100
636.500	6.639	0.100
636.600	1.051	0.100
636.700	5.562	0.100
636.800	17.329	0.100
636.900	14.714	0.100
637.000	-1.174	0.100
637.100	-2.356	0.100
637.200	-5.721	0.100
637.300	1.092	0.100
637.400	6.300	0.100
637.500	8.084	0.100
637.600	9.684	0.100
637.700	3.350	0.100
637.800	6.302	0.100
637.900	7.883	0.100
638.000	-4.405	0.100
638.100	9.433	0.100
638.200	1.552	0.100
638.300	-1.386	0.100
638.400	6.719	0.100
638.500	5.608	0.100
638.600	11.775	0.100
638.700	10.419	0.100
638.800	3.514	0.100
638.900	1.792	0.100
639.000	9.742	0.100
639.100	16.476	0.100
639.200	7.414	0.100
639.300	9.230	0.100
639.400	11.559	0.100
639.500	8.574	0.100
639.600	15.759	0.100
639.700	8.252	0.100
639.800	6.815	0.100
639.900	11.318	0.100
640.000	17.373	0.100
640.100	5.305	0.100
640.200	9.247	0.100
640.300	6.973	0.100
640.400	10.607	0.100
640.500	3.442	0.100
640.600	4.417	0.100
640.700	4.010	0.100
640.800	12.277	0.100
640.900	5.146	0.100
641.000	4.700	0.100
641.100	4.949	0.100
641.200	9.304	0.100
641.300	8.315	0.100
641.400	11.487	0.100
641.500	13.589	0.100
641.600	7.741	0.100
641.700	10.974	0.100
641.800	12.924	0.100
641.900	3.619	0.100
642.000	6.907	0.100
642.100	15.528	0.100
642.200	0.539	0.100
642.300	14.974	0.100
642.400	18.679	0.100
642.500	6.232	0.100
642.600	7.414	0.100
642.700	12.174	0.100
642.800	14.825	0.100
642.900	20.639	0.100
643.000	10.000	0.100
643.100	17.333	0.100
643.200	5.086	0.100
643.300	15.000	0.100
643.400	20.140	0.100
643.500	11.887	0.100
643.600	8.071	0.100
643.700	5.194	0.100
643.800	15.184	0.100
643.900	4.531	0.100
644.000	12.242	0.100
644.100	16.386	0.100
644.200	10.734	0.100
644.300	9.678	0.100
644.400	18.950	0.100
644.500	6.308	0.100
644.600	10.627	0.100
644.700	14.319	0.100
644.800	9.951	0.100
644.900	13.707	0.100
645.000	18.255	0.100
645.100	16.789	0.100
645.200	8.881	0.100
645.300	14.415	0.100
645.400	9.830	0.100
645.500	18.534	0.100
645.600	8.254	0.100
645.700	20.303	0.100
645.800	15.775	0.100
645.900	12.450	0.100
646.000	10.014	0.100
646.100	20.882	0.100
646.200	13.547	0.100
646.300	21.640	0.100
646.400	20.632	0.100
646.500	10.086	0.100
646.600	22.953	0.100
646.700	12.804	0.100
646.800	13.452	0.100
646.900	11.390	0.100
647.000	23.138	0.100
647.100	16.872	0.100
647.200	18.546	0.100
647.300	17.919	0.100
647.400	15.159	0.100
647.500	5.206	0.100
647.600	23.837	0.100
647.700	21.147	0.100
647.800	14.047	0.100
647.900	23.941	0.100
648.000	13.350	0.100
648.100	16.631	0.100
648.200	17.534	0.100
648.300	20.410	0.100
648.400	17.674	0.100
648.500	17.850	0.100
648.600	19.147	0.100
648.700	12.462	0.100
648.800	16.680	0.100
648.900	10.739	0.100
649.000	31.542	0.100
649.100	12.541	0.100
649.200	15.921	0.100
649.300	15.368	0.100
649.400	12.917	0.100
649.500	15.537	0.100
649.600	10.705	0.100
649.700	11.187	0.100
649.800	13.966	0.100
649.900	18.296	0.100
650.000	20.122	0.100
650.100	8.808	0.100
650.200	17.987	0.100
650.300	15.212	0.100
650.400	2.844	0.100
650.500	16.177	0.100
650.600	10.174	0.100
650.700	25.691	0.100
650.800	13.786	0.100
650.900	16.676	0.100
651.000	21.867	0.100
651.100	17.085	0.100
651.200	17.118	0.100
651.300	14.757	0.100
651.400	12.379	0.100
651.500	12.617	0.100
651.600	18.520	0.100
651.700	10.988	0.100
651.800	21.786	0.100
651.900	15.711	0.100
652.000	14.107	0.100
652.100	15.366	0.100
652.200	14.909	0.100
652.300	21.209	0.100
652.400	8.816	0.100
652.500	17.573	0.100
652.600	14.237	0.100
652.700	20.671	0.100
652.800	20.093	0.100
652.900	7.701	0.100
653.000	13.301	0.100
653.100	12.963	0.100
653.200	15.947	0.100
653.300	20.171	0.100
653.400	23.454	0.100
653.500	9.270	0.100
653.600	23.398	0.100
653.700	19.080	0.100
653.800	18.775	0.100
653.900	10.012	0.100
654.000	14.269	0.100
654.100	19.158	0.100
654.200	15.712	0.100
654.300	26.662	0.100
654.400	11.913	0.100
654.500	27.459	0.100
654.600	6.183	0.100
654.700	14.702	0.100
654.800	24.412	0.100
654.900	17.551	0.100
655.000	14.803	0.100
655.100	12.476	0.100
655.200	13.633	0.100
655.300	11.323	0.100
655.400	17.427	0.100
655.500	8.910	0.100
655.600	17.073	0.100
655.700	17.174	0.100
655.800	14.720	0.100
655.900	14.989	0.100
656.000	27.405	0.100
656.100	18.450	0.100
656.200	10.682	0.100
656.300	12.182	0.100
656.400	15.394	0.100
656.500	18.233	0.100
656.600	13.105	0.100
656.700	17.229	0.100
656.800	17.238	0.100
656.900	14.016	0.100
657.000	9.776	0.100
657.100	17.172	0.100
657.200	11.842	0.100
657.300	12.141	0.100
657.400	16.721	0.100
657.500	25.014	0.100
657.600	12.911	0.100
657.700	18.045	0.100
657.800	16.920	0.100
657.900	9.179	0.100
658.000	13.991	0.100
658.100	6.718	0.100
658.200	21.890	0.100
658.300	18.347	0.100
658.400	9.837	0.100
658.500	21.023	0.100
658.600	17.887	0.100
658.700	19.471	0.100
658.800	14.685	0.100
658.900	19.799	0.100
659.000	13.443	0.100
659.100	19.976	0.100
659.200	10.334	0.100
659.300	18.020	0.100
659.400	15.367	0.100
659.500	21.124	0.100
659.600	12.109	0.100
659.700	20.881	0.100
659.800	18.149	0.100
659.900	16.180	0.100
660.000	15.035	0.100
660.100	7.399	0.100
660.200	11.968	0.100
660.300	12.207	0.100
660.400	16.284	0.100
660.500	24.489	0.100
660.600	18.228	0.100
660.700	12.883	0.100
660.800	20.322	0.100
660.900	16.051	0.100
661.000	23.025	0.100
661.100	14.600	0.100
661.200	16.644	0.100
661.300	11.013	0.100
661.400	8.662	0.100
661.500	20.077	0.100
661.600	14.425	0.100
661.700	18.239	0.100
661.800	17.641	0.100
661.900	14.265	0.100
662.000	14.456	0.100
662.100	18.970	0.100
662.200	12.896	0.100
662.300	0.117	0.100
662.400	6.753	0.100
662.500	18.934	0.100
662.600	14.079	0.100
662.700	15.015	0.100
662.800	11.342	0.100
662.900	11.859	0.100
663.000	9.196	0.100
663.100	16.138	0.100
663.200	11.933	0.100
663.300	20.543	0.100
663.400	16.279	0.100
663.500	14.009	0.100
663.600	13.448	0.100
663.700	8.665	0.100
663.800	25.350	0.100
663.900	19.309	0.100
664.000	4.115	0.100
664.100	16.754	0.100
664.200	20.650	0.100
664.300	7.295	0.100
664.400	3.022	0.100
664.500	17.756	0.100
664.600	16.481	0.100
664.700	11.837	0.100
664.800	16.466	0.100
664.900	10.649	0.100
665.000	17.456	0.100
665.100	13.044	0.100
665.200	18.330	0.100
665.300	16.795	0.100
665.400	15.879	0.100
665.500	20.149	0.100
665.600	2.258	0.100
665.700	9.997	0.100
665.800	21.767	0.100
665.900	18.187	0.100
666.000	18.915	0.100
666.100	16.509	0.100
666.200	19.990	0.100
666.300	7.872	0.100
666.400	16.676	0.100
666.500	12.771	0.100
666.600	12.123	0.100
666.700	11.774	0.100
666.800	15.469	0.100
666.900	15.931	0.100
667.000	12.730	0.100
667.100	18.397	0.100
667.200	11.646	0.100
667.300	12.586	0.100
667.400	11.126	0.100
667.500	13.317	0.100
667.600	5.749	0.100
667.700	13.484	0.100
667.800	16.868	0.100
667.900	14.880	0.100
668.000	12.747	0.100
668.100	10.950	0.100
668.200	16.132	0.100
668.300	14.060	0.100
668.400	9.697	0.100
668.500	13.158	0.100
668.600	13.634	0.100
668.700	11.862	0.100
668.800	23.921	0.100
668.900	21.471	0.100
669.000	11.120	0.100
669.100	18.772	0.100
669.200	12.820	0.100
669.300	11.819	0.100
669.400	12.890	0.100
669.500	17.557	0.100
669.600	20.196	0.100
669.700	12.899	0.100
669.800	4.985	0.100
669.900	17.019	0.100
670.000	15.650	0.100
670.100	14.034	0.100
670.200	11.027	0.100
670.300	11.267	0.100
670.400	5.577	0.100
670.500	15.537	0.100
670.600	11.504	0.100
670.700	11.152	0.100
670.800	9.239	0.100
670.900	21.487	0.100
671.000	20.633	0.100
671.100	16.498	0.100
671.200	11.653	0.100
671.300	9.857	0.100
671.400	23.928	0.100
671.500	11.283	0.100
671.600	4.186	0.100
671.700	17.389	0.100
671.800	15.595	0.100
671.900	19.318	0.100
672.000	24.464	0.100
672.100	12.878	0.100
672.200	13.315	0.100
672.300	11.095	0.100
672.400	16.446	0.100
672.500	11.976	0.100
672.600	13.154	0.100
672.700	18.572	0.100
672.800	9.701	0.100
672.900	14.446	0.100
673.000	17.804	0.100
673.100	14.668	0.100
673.200	14.060	0.100
673.300	16.277	0.100
673.400	12.551	0.100
673.500	17.189	0.100
673.600	14.289	0.100
673.700	5.835	0.100
673.800	19.307	0.100
673.900	23.084	0.100
674.000	14.941	0.100
674.100	15.766	0.100
674.200	13.777	0.100
674.300	16.885	0.100
674.400	10.438	0.100
674.500	16.347	0.100
674.600	17.718	0.100
674.700	14.539	0.100
674.800	18.694	0.100
674.900	11.626	0.100
675.000	17.946	0.100
675.100	8.672	0.100
675.200	9.669	0.100
675.300	17.770	0.100
675.400	14.678	0.100
675.500	17.471	0.100
675.600	15.874	0.100
675.700	9.747	0.100
675.800	19.774	0.100
675.900	11.138	0.100
676.000	17.365	0.100
676.100	12.256	0.100
676.200	12.467	0.100
676.300	9.623	0.100
676.400	7.690	0.100
676.500	19.132	0.100
676.600	21.211	0.100
676.700	14.011	0.100
676.800	13.361	0.100
676.900	13.891	0.100
677.000	13.884	0.100
677.100	16.261	0.100
677.200	17.107	0.100
677.300	15.899	0.100
677.400	11.034	0.100
677.500	10.302	0.100
677.600	3.333	0.100
677.700	23.902	0.100
677.800	19.629	0.100
677.900	9.464	0.100
678.000	16.161	0.100
678.100	9.793	0.100
678.200	11.146	0.100
678.300	10.689	0.100
678.400	11.320	0.100
678.500	25.487	0.100
678.600	23.993	0.100
678.700	13.700	0.100
678.800	16.182	0.100
678.900	13.411	0.100
679.000	17.608	0.100
679.100	12.751	0.100
679.200	14.071	0.100
679.300	8.361	0.100
679.400	16.426	0.100
679.500	24.246	0.100
679.600	16.967	0.100
679.700	10.651	0.100
679.800	13.755	0.100
679.900	16.006	0.100
680.000	19.040	0.100
680.100	20.418	0.100
680.200	15.463	0.100
680.300	13.987	0.100
680.400	0.869	0.100
680.500	9.603	0.100
680.600	14.823	0.100
680.700	14.023	0.100
680.800	19.628	0.100
680.900	16.811	0.100
681.000	16.259	0.100
681.100	17.031	0.100
681.200	9.319	0.100
681.300	14.725	0.100
681.400	17.750	0.100
681.500	16.162	0.100
681.600	19.518	0.100
681.700	12.401	0.100
681.800	7.998	0.100
681.900	21.301	0.100
682.000	19.808	0.100
682.100	17.328	0.100
682.200	15.263	0.100
682.300	8.149	0.100
682.400	17.908	0.100
682.500	13.141	0.100
682.600	15.966	0.100
682.700	13.822	0.100
682.800	9.086	0.100
682.900	11.335	0.100
683.000	15.232	0.100
683.100	19.370	0.100
683.200	19.620	0.100
683.300	8.090	0.100
683.400	20.798	0.100
683.500	10.851	0.100
683.600	20.770	0.100
683.700	14.143	0.100
683.800	23.833	0.100
683.900	15.375	0.100
684.000	20.058	0.100
684.100	8.888	0.100
684.200	14.572	0.100
684.300	15.319	0.100
684.400	10.479	0.100
684.500	17.427	0.100
684.600	20.955	0.100
684.700	12.727	0.100
684.800	18.605	0.100
684.900	10.462	0.100
685.000	11.140	0.100
685.100	13.767	0.100
685.200	17.228	0.100
685.300	17.289	0.100
685.400	21.726	0.100
685.500	14.983	0.100
685.600	11.935	0.100
685.700	20.915	0.100
685.800	17.358	0.100
685.900	16.193	0.100
686.000	11.281	0.100
686.100	14.501	0.100
686.200	14.136	0.100
686.300	21.871	0.100
686.400	5.025	0.100
686.500	7.907	0.100
686.600	17.041	0.100
686.700	17.291	0.100
686.800	14.887	0.100
686.900	18.387	0.100
687.000	13.973	0.100
687.100	15.468	0.100
687.200	21.407	0.100
687.300	4.816	0.100
687.400	13.020	0.100
687.500	17.212	0.100
687.600	12.867	0.100
687.700	14.215	0.100
687.800	21.984	0.100
687.900	24.791	0.100
688.000	9.908	0.100
688.100	19.480	0.100
688.200	20.107	0.100
688.300	5.942	0.100
688.400	20.365	0.100
688.500	14.735	0.100
688.600	13.149	0.100
688.700	10.282	0.100
688.800	7.303	0.100
688.900	19.068	0.100
689.000	15.191	0.100
689.100	20.224	0.100
689.200	12.379	0.100
689.300	14.613	0.100
689.400	14.626	0.100
689.500	11.992	0.100
689.600	18.169	0.100
689.700	16.718	0.100
689.800	12.725	0.100
689.900	12.853	0.100
690.000	16.266	0.100
690.100	16.318	0.100
690.200	10.253	0.100
690.300	8.874	0.100
690.400	28.014	0.100
690.500	22.754	0.100
690.600	14.130	0.100
690.700	3.863	0.100
690.800	0.631	0.100
690.900	-4.053	0.100
691.000	1.312	0.100
691.100	1.773	0.100
691.200	3.933	0.100
691.300	-4.208	0.100
691.400	-5.497	0.100
691.500	-8.456	0.100
691.600	-11.366	0.100
691.700	-21.942	0.100
691.800	-18.790	0.100
691.900	-14.289	0.100
692.000	-11.396	0.100
692.100	-4.922	0.100
692.200	-14.354	0.100
692.300	-18.757	0.100
692.400	-21.372	0.100
692.500	-22.073	0.100
692.600	-15.946	0.100
692.700	-19.835	0.100
692.800	-16.674	0.100
692.900	-26.608	0.100
693.000	-19.081	0.100
693.100	-15.662	0.100
693.200	-7.555	0.100
693.300	-18.137	0.100
693.400	-21.125	0.100
693.500	-10.987	0.100
693.600	-15.137	0.100
693.700	-16.202	0.100
693.800	-16.924	0.100
693.900	-13.829	0.100
694.000	-16.515	0.100
694.100	-14.561	0.100
694.200	-11.685	0.100
694.300	-20.649	0.100
694.400	-12.228	0.100
694.500	-24.120	0.100
694.600	-11.759	0.100
694.700	-13.336	0.100
694.800	-17.070	0.100
694.900	-10.937	0.100
695.000	-17.429	0.100
695.100	-21.603	0.100
695.200	-15.349	0.100
695.300	-11.790	0.100
695.400	-6.498	0.100
695.500	-9.498	0.100
695.600	-23.404	0.100
695.700	-15.485	0.100
695.800	-16.129	0.100
695.900	-7.364	0.100
696.000	-14.286	0.100
696.100	-8.200	0.100
696.200	-10.082	0.100
696.300	-9.181	0.100
696.400	-20.727	0.100
696.500	-12.269	0.100
696.600	-21.128	0.100
696.700	-6.670	0.100
696.800	-6.781	0.100
696.900	-14.218	0.100
697.000	-11.850	0.100
697.100	-6.221	0.100
697.200	-9.037	0.100
697.300	-10.137	0.100
697.400	-5.831	0.100
697.500	-7.942	0.100
697.600	-3.219	0.100
697.700	-10.099	0.100
697.800	-8.777	0.100
697.900	-8.711	0.100
698.000	-12.857	0.100
698.100	-11.873	0.100
698.200	-6.865	0.100
698.300	-12.249	0.100
698.400	-11.756	0.100
698.500	-2.120	0.100
698.600	-7.873	0.100
698.700	-8.309	0.100
698.800	-3.381	0.100
698.900	-10.849	0.100
699.000	-11.318	0.100
699.100	-16.694	0.100
699.200	-8.367	0.100
699.300	-15.390	0.100
699.400	-13.851	0.100
699.500	-11.411	0.100
699.600	-14.472	0.100
699.700	-7.401	0.100
699.800	-16.641	0.100
699.900	6.352	0.100
700.000	2.865	0.100
700.100	-13.832	0.100
700.200	-4.925	0.100
700.300	-4.843	0.100
700.400	-8.480	0.100
700.500	-11.640	0.100
700.600	-11.348	0.100
700.700	-7.408	0.100
700.800	-18.945	0.100
700.900	1.851	0.100
701.000	-5.951	0.100
701.100	-13.669	0.100
701.200	-6.071	0.100
701.300	-10.649	0.100
701.400	-11.311	0.100
701.500	-11.835	0.100
701.600	-4.850	0.100
701.700	-14.515	0.100
701.800	-4.030	0.100
701.900	-4.736	0.100
702.000	-10.790	0.100
702.100	-12.309	0.100
702.200	-12.336	0.100
702.300	-8.709	0.100
702.400	-11.313	0.100
702.500	-2.869	0.100
702.600	-1.974	0.100
702.700	-3.027	0.100
702.800	-8.995	0.100
702.900	-3.789	0.100
703.000	-6.455	0.100
703.100	-11.846	0.100
703.200	-10.822	0.100
703.300	-4.306	0.100
703.400	-11.139	0.100
703.500	-9.683	0.100
703.600	-10.489	0.100
703.700	-12.325	0.100
703.800	-7.353	0.100
703.900	-6.591	0.100
704.000	-3.872	0.100
704.100	-9.778	0.100
704.200	-11.416	0.100
704.300	-5.775	0.100
704.400	-13.635	0.100
704.500	-11.809	0.100
704.600	-16.211	0.100
704.700	-9.524	0.100
704.800	-5.862	0.100
704.900	-6.479	0.100
705.000	2.014	0.100
705.100	-8.927	0.100
705.200	-4.639	0.100
705.300	-6.266	0.100
705.400	-12.187	0.100
705.500	-14.952	0.100
705.600	-14.908	0.100
705.700	-21.371	0.100
705.800	-10.150	0.100
705.900	-7.674	0.100
706.000	7.400	0.100
706.100	-9.788	0.100
706.200	-12.914	0.100
706.300	-10.153	0.100
706.400	-10.323	0.100
706.500	-10.817	0.100
706.600	-8.802	0.100
706.700	-11.892	0.100
706.800	-11.305	0.100
706.900	-5.791	0.100
707.000	-5.033	0.100
707.100	-9.390	0.100
707.200	-13.890	0.100
707.300	-5.290	0.100
707.400	-21.486	0.100
707.500	-6.040	0.100
707.600	-11.526	0.100
707.700	-6.399	0.100
707.800	-11.315	0.100
707.900	-2.157	0.100
708.000	-2.897	0.100
708.100	-12.432	0.100
708.200	-7.001	0.100
708.300	-8.995	0.100
708.400	-10.535	0.100
708.500	-14.600	0.100
708.600	-6.941	0.100
708.700	-10.126	0.100
708.800	0.095	0.100
708.900	-14.422	0.100
709.000	-15.858	0.100
709.100	-8.727	0.100
709.200	-10.943	0.100
709.300	-18.687	0.100
709.400	-11.695	0.100
709.500	-1.688	0.100
709.600	-8.012	0.100
709.700	-15.010	0.100
709.800	-4.919	0.100
709.900	-8.905	0.100
710.000	-8.891	0.100
710.100	-2.251	0.100
710.200	-13.367	0.100
710.300	-15.069	0.100
710.400	-14.229	0.100
710.500	-10.044	0.100
710.600	-11.227	0.100
710.700	-10.096	0.100
710.800	-17.232	0.100
710.900	-12.477	0.100
711.000	-17.860	0.100
711.100	-16.684	0.100
711.200	-6.880	0.100
711.300	-9.102	0.100
711.400	-6.816	0.100
711.500	-15.888	0.100
711.600	-13.135	0.100
711.700	-13.342	0.100
711.800	-7.763	0.100
711.900	-4.896	0.100
712.000	-7.724	0.100
712.100	-14.384	0.100
712.200	-12.414	0.100
712.300	-4.889	0.100
712.400	-3.453	0.100
712.500	-4.486	0.100
712.600	-14.199	0.100
712.700	-9.211	0.100
712.800	-14.196	0.100
712.900	-10.415	0.100
713.000	-3.503	0.100
713.100	-7.111	0.100
713.200	-9.481	0.100
713.300	-9.428	0.100
713.400	-6.797	0.100
713.500	0.638	0.100
713.600	-9.886	0.100
713.700	-10.943	0.100
713.800	-13.191	0.100
713.900	-13.208	0.100
714.000	-22.211	0.100
714.100	-8.150	0.100
714.200	-15.944	0.100
714.300	-9.517	0.100
714.400	-14.539	0.100
714.500	-11.803	0.100
714.600	-4.977	0.100
714.700	-13.946	0.100
714.800	-3.413	0.100
714.900	-17.039	0.100
715.000	-8.657	0.100
715.100	-5.956	0.100
715.200	-9.543	0.100
715.300	-10.508	0.100
715.400	-9.537	0.100
715.500	-16.761	0.100
715.600	-3.016	0.100
715.700	-4.874	0.100
715.800	-9.358	0.100
715.900	-14.577	0.100
716.000	-7.372	0.100
716.100	-8.350	0.100
716.200	-9.645	0.100
716.300	-9.403	0.100
716.400	-8.212	0.100
716.500	-9.949	0.100
716.600	-12.920	0.100
716.700	-18.384	0.100
716.800	-6.757	0.100
716.900	-11.388	0.100
717.000	-12.329	0.100
717.100	-15.947	0.100
717.200	-10.805	0.100
717.300	-15.619	0.100
717.400	-9.895	0.100
717.500	-1.972	0.100
717.600	-12.970	0.100
717.700	-11.343	0.100
717.800	-19.173	0.100
717.900	-5.387	0.100
718.000	-5.596	0.100
718.100	-13.506	0.100
718.200	-1.960	0.100
718.300	-17.462	0.100
718.400	-10.301	0.100
718.500	-8.525	0.100
718.600	-17.992	0.100
718.700	-16.320	0.100
718.800	-9.249	0.100
718.900	-12.212	0.100
719.000	-6.201	0.100
719.100	-8.729	0.100
719.200	-13.639	0.100
719.300	-1.512	0.100
719.400	-13.243	0.100
719.500	-11.243	0.100
719.600	-18.352	0.100
719.700	-12.904	0.100
719.800	-5.628	0.100
719.900	-13.395	0.100
720.000	-14.180	0.100
720.100	-9.465	0.100
720.200	-14.456	0.100
720.300	-8.991	0.100
720.400	-10.835	0.100
720.500	-12.561	0.100
720.600	-12.352	0.100
720.700	-16.054	0.100
720.800	-21.057	0.100
720.900	-1.326	0.100
721.000	-6.063	0.100
721.100	-15.488	0.100
721.200	-11.580	0.100
721.300	-10.566	0.100
721.400	-9.364	0.100
721.500	-12.935	0.100
721.600	-5.991	0.100
721.700	-11.255	0.100
721.800	-16.786	0.100
721.900	-8.213	0.100
722.000	-13.364	0.100
722.100	-15.331	0.100
722.200	-8.529	0.100
722.300	-12.386	0.100
722.400	-6.598	0.100
722.500	-12.081	0.100
722.600	-10.975	0.100
722.700	-8.141	0.100
722.800	-14.001	0.100
722.900	-5.267	0.100
723.000	-11.454	0.100
723.100	-11.670	0.100
723.200	-7.454	0.100
723.300	-6.039	0.100
723.400	-7.492	0.100
723.500	-15.287	0.100
723.600	-19.426	0.100
723.700	-9.151	0.100
723.800	-5.016	0.100
723.900	-12.060	0.100
724.000	-6.470	0.100
724.100	-7.806	0.100
724.200	-20.928	0.100
724.300	-5.556	0.100
724.400	-14.118	0.100
724.500	-6.949	0.100
724.600	-6.319	0.100
724.700	-5.565	0.100
724.800	-10.916	0.100
724.900	-18.844	0.100
725.000	-14.125	0.100
725.100	-10.290	0.100
725.200	-10.226	0.100
725.300	-22.296	0.100
725.400	-10.137	0.100
725.500	-0.446	0.100
725.600	-0.145	0.100
725.700	-11.959	0.100
725.800	-5.414	0.100
725.900	-9.151	0.100
726.000	-10.278	0.100
726.100	-21.501	0.100
726.200	-15.034	0.100
726.300	-7.256	0.100
726.400	-9.189	0.100
726.500	-17.433	0.100
726.600	-12.566	0.100
726.700	-21.510	0.100
726.800	-11.893	0.100
726.900	1.813	0.100
727.000	-17.961	0.100
727.100	-11.525	0.100
727.200	-14.405	0.100
727.300	-9.338	0.100
727.400	-11.879	0.100
727.500	-11.556	0.100
727.600	-10.129	0.100
727.700	-3.217	0.100
727.800	-9.862	0.100
727.900	-8.723	0.100
728.000	-9.984	0.100
728.100	-12.419	0.100
728.200	-7.810	0.100
728.300	-4.725	0.100
728.400	-9.596	0.100
728.500	-14.392	0.100
728.600	-9.754	0.100
728.700	-12.982	0.100
728.800	-14.125	0.100
728.900	-7.749	0.100
729.000	-11.527	0.100
729.100	-21.468	0.100
729.200	-12.948	0.100
729.300	-4.629	0.100
729.400	-6.628	0.100
729.500	-9.755	0.100
729.600	-11.647	0.100
729.700	-12.264	0.100
729.800	-7.454	0.100
729.900	-6.657	0.100
730.000	-12.943	0.100
730.100	-14.525	0.100
730.200	-8.920	0.100
730.300	-5.523	0.100
730.400	-9.566	0.100
730.500	-16.553	0.100
730.600	-12.964	0.100
730.700	-11.538	0.100
730.800	-10.918	0.100
730.900	-12.611	0.100
731.000	-2.618	0.100
731.100	-2.451	0.100
731.200	-4.561	0.100
731.300	-21.074	0.100
731.400	-18.199	0.100
731.500	3.669	0.100
731.600	-0.584	0.100
731.700	-9.496	0.100
731.800	-15.621	0.100
731.900	-13.206	0.100
732.000	-12.404	0.100
732.100	-12.549	0.100
732.200	-14.737	0.100
732.300	-8.920	0.100
732.400	-7.698	0.100
732.500	-9.421	0.100
732.600	-5.691	0.100
732.700	-7.234	0.100
732.800	-23.185	0.100
732.900	-12.747	0.100
733.000	-15.579	0.100
733.100	-9.713	0.100
733.200	-13.402	0.100
733.300	-15.769	0.100
733.400	-9.217	0.100
733.500	-7.344	0.100
733.600	-3.786	0.100
733.700	-9.832	0.100
733.800	-5.877	0.100
733.900	-12.667	0.100
734.000	-16.498	0.100
734.100	-8.373	0.100
734.200	-6.614	0.100
734.300	-16.486	0.100
734.400	-3.616	0.100
734.500	-11.671	0.100
734.600	-15.441	0.100
734.700	-9.515	0.100
734.800	-6.462	0.100
734.900	-18.243	0.100
735.000	-8.756	0.100
735.100	-10.996	0.100
735.200	-18.788	0.100
735.300	-2.979	0.100
735.400	1.127	0.100
735.500	-10.898	0.100
735.600	-9.723	0.100
735.700	-11.502	0.100
735.800	-2.536	0.100
735.900	-2.980	0.100
736.000	-3.061	0.100
736.100	-13.455	0.100
736.200	-8.291	0.100
736.300	-12.936	0.100
736.400	-9.167	0.100
736.500	-12.093	0.100
736.600	-6.003	0.100
736.700	-5.133	0.100
736.800	-5.889	0.100
736.900	-16.941	0.100
737.000	-6.123	0.100
737.100	-6.038	0.100
737.200	-11.308	0.100
737.300	-8.914	0.100
737.400	-11.851	0.100
737.500	-7.607	0.100
737.600	-5.187	0.100
737.700	-18.493	0.100
737.800	-2.121	0.100
737.900	-11.958	0.100
738.000	-10.757	0.100
738.100	-13.572	0.100
738.200	-1.797	0.100
738.300	-23.363	0.100
738.400	-12.962	0.100
738.500	-4.504	0.100
738.600	-7.813	0.100
738.700	-8.679	0.100
738.800	-7.861	0.100
738.900	-10.108	0.100
739.000	-14.358	0.100
739.100	-0.880	0.100
739.200	-13.314	0.100
739.300	-13.693	0.100
739.400	-9.598	0.100
739.500	-8.864	0.100
739.600	-2.451	0.100
739.700	-12.688	0.100
739.800	-11.861	0.100
739.900	-9.484	0.100
740.000	-3.852	0.100
740.100	-12.477	0.100
740.200	-1.675	0.100
740.300	-8.095	0.100
740.400	-13.763	0.100
740.500	-8.814	0.100
740.600	-11.308	0.100
740.700	-6.105	0.100
740.800	-13.288	0.100
740.900	-8.605	0.100
741.000	2.680	0.100
741.100	-8.315	0.100
741.200	-15.462	0.100
741.300	-18.989	0.100
741.400	-11.664	0.100
741.500	-1.149	0.100
741.600	-1.291	0.100
741.700	-12.791	0.100
741.800	-11.497	0.100
741.900	-15.317	0.100
742.000	-12.988	0.100
742.100	0.470	0.100
742.200	-4.712	0.100
742.300	-3.126	0.100
742.400	-11.874	0.100
742.500	-15.506	0.100
742.600	-12.433	0.100
742.700	-8.077	0.100
742.800	-11.381	0.100
742.900	-10.614	0.100
743.000	-4.126	0.100
743.100	-7.613	0.100
743.200	-7.792	0.100
743.300	-13.343	0.100
743.400	-2.850	0.100
743.500	-5.334	0.100
743.600	-11.880	0.100
743.700	-8.258	0.100
743.800	-16.859	0.100
743.900	-10.195	0.100
744.000	-9.307	0.100
744.100	3.619	0.100
744.200	-10.484	0.100
744.300	-8.945	0.100
744.400	-11.487	0.100
744.500	-1.500	0.100
744.600	-8.050	0.100
744.700	-7.134	0.100
744.800	-8.700	0.100
744.900	-19.061	0.100
745.000	-9.958	0.100
745.100	-9.167	0.100
745.200	-1.283	0.100
745.300	-17.553	0.100
745.400	-5.281	0.100
745.500	-8.661	0.100
745.600	-6.878	0.100
745.700	-5.361	0.100
745.800	-5.580	0.100
745.900	-17.915	0.100
746.000	-12.202	0.100
746.100	-11.608	0.100
746.200	-5.548	0.100
746.300	-6.752	0.100
746.400	-12.098	0.100
746.500	-10.628	0.100
746.600	-10.795	0.100
746.700	-4.534	0.100
746.800	-2.369	0.100
746.900	-10.322	0.100
747.000	-11.298	0.100
747.100	-6.995	0.100
747.200	-1.298	0.100
747.300	-11.412	0.100
747.400	-16.970	0.100
747.500	-8.975	0.100
747.600	-8.832	0.100
747.700	-5.771	0.100
747.800	-12.324	0.100
747.900	-3.613	0.100
748.000	-11.305	0.100
748.100	-4.020	0.100
748.200	0.770	0.100
748.300	-13.289	0.100
748.400	-7.927	0.100
748.500	-5.110	0.100
748.600	-12.350	0.100
748.700	-11.327	0.100
748.800	-18.814	0.100
748.900	-9.559	0.100
749.000	-7.617	0.100
749.100	-13.283	0.100
749.200	-7.723	0.100
749.300	-0.293	0.100
749.400	-8.990	0.100
749.500	-11.678	0.100
749.600	-11.298	0.100
749.700	-2.247	0.100
749.800	-4.910	0.100
749.900	-18.204	0.100
750.000	-12.047	0.100
750.100	-11.739	0.100
750.200	-12.161	0.100
750.300	-9.334	0.100
750.400	-6.937	0.100
750.500	-2.910	0.100
750.600	-16.706	0.100
750.700	-11.443	0.100
750.800	-13.417	0.100
750.900	-8.307	0.100
751.000	-9.085	0.100
751.100	-17.366	0.100
751.200	9.288	0.100
751.300	-3.152	0.100
751.400	-7.427	0.100
751.500	-10.716	0.100
751.600	-8.074	0.100
751.700	-6.796	0.100
751.800	-11.212	0.100
751.900	-6.050	0.100
752.000	-15.440	0.100
752.100	-8.383	0.100
752.200	-6.483	0.100
752.300	-3.229	0.100
752.400	-14.444	0.100
752.500	-12.987	0.100
752.600	-8.556	0.100
752.700	-6.033	0.100
752.800	-14.271	0.100
752.900	-14.930	0.100
753.000	-1.510	0.100
753.100	-3.585	0.100
753.200	-4.478	0.100
753.300	-18.215	0.100
753.400	-11.363	0.100
753.500	-9.671	0.100
753.600	-0.106	0.100
753.700	-7.488	0.100
753.800	-1.821	0.100
753.900	-9.552	0.100
754.000	-14.005	0.100
754.100	-5.173	0.100
754.200	-5.602	0.100
754.300	-6.995	0.100
754.400	-4.681	0.100
754.500	-8.911	0.100
754.600	-10.999	0.100
754.700	-10.578	0.100
754.800	-5.336	0.100
754.900	-7.458	0.100
755.000	-11.353	0.100
755.100	-11.897	0.100
755.200	-11.031	0.100
755.300	-10.039	0.100
755.400	-19.224	0.100
755.500	-4.492	0.100
755.600	-4.485	0.100
755.700	-14.403	0.100
755.800	-1.946	0.100
755.900	-4.812	0.100
756.000	-7.410	0.100
756.100	-10.736	0.100
756.200	-10.778	0.100
756.300	-8.850	0.100
756.400	-16.612	0.100
756.500	-11.610	0.100
756.600	-7.969	0.100
756.700	-0.659	0.100
756.800	-3.994	0.100
756.900	-13.446	0.100
757.000	-8.007	0.100
757.100	-8.575	0.100
757.200	-12.768	0.100
757.300	-4.950	0.100
757.400	-9.982	0.100
757.500	-5.389	0.100
757.600	-9.544	0.100
757.700	-11.441	0.100
757.800	-1.431	0.100
757.900	-3.563	0.100
758.000	-10.564	0.100
758.100	-5.827	0.100
758.200	-9.397	0.100
758.300	-14.571	0.100
758.400	1.768	0.100
758.500	-15.292	0.100
758.600	-4.490	0.100
758.700	-7.234	0.100
758.800	-2.752	0.100
758.900	-12.544	0.100
759.000	-7.165	0.100
759.100	-7.249	0.100
759.200	-14.594	0.100
759.300	-5.835	0.100
759.400	-3.277	0.100
759.500	-11.554	0.100
759.600	-5.824	0.100
759.700	-12.436	0.100
759.800	-13.604	0.100
759.900	1.149	0.100
760.000	-6.860	0.100
760.100	-4.846	0.100
760.200	-2.304	0.100
760.300	-7.809	0.100
760.400	-7.609	0.100
760.500	-5.028	0.100
760.600	-5.478	0.100
760.700	-0.174	0.100
760.800	-15.299	0.100
760.900	-12.211	0.100
761.000	-11.653	0.100
761.100	-7.931	0.100
761.200	-3.505	0.100
761.300	-7.455	0.100
761.400	-9.012	0.100
761.500	-7.664	0.100
761.600	-6.668	0.100
761.700	-4.235	0.100
761.800	-11.357	0.100
761.900	-4.621	0.100
762.000	-17.582	0.100
762.100	-10.341	0.100
762.200	-6.148	0.100
762.300	-5.054	0.100
762.400	-2.571	0.100
762.500	-11.371	0.100
762.600	-11.233	0.100
762.700	-4.843	0.100
762.800	-8.454	0.100
762.900	-4.126	0.100
763.000	-18.087	0.100
763.100	-6.049	0.100
763.200	-4.559	0.100
763.300	-11.720	0.100
763.400	-12.136	0.100
763.500	-8.414	0.100
763.600	-5.235	0.100
763.700	-2.739	0.100
763.800	-4.479	0.100
763.900	-17.665	0.100
764.000	-8.479	0.100
764.100	-12.169	0.100
764.200	-9.302	0.100
764.300	-4.364	0.100
764.400	-4.121	0.100
764.500	-6.357	0.100
764.600	-15.298	0.100
764.700	-1.318	0.100
764.800	-3.610	0.100
764.900	-4.668	0.100
765.000	-9.973	0.100
765.100	-8.303	0.100
765.200	-13.494	0.100
765.300	-2.840	0.100
765.400	-6.141	0.100
765.500	-8.204	0.100
765.600	-13.756	0.100
765.700	-7.958	0.100
765.800	-12.002	0.100
765.900	-10.439	0.100
766.000	-9.709	0.100
766.100	-7.417	0.100
766.200	-12.799	0.100
766.300	-3.868	0.100
766.400	-4.002	0.100
766.500	-0.735	0.100
766.600	-10.644	0.100
766.700	-11.448	0.100
766.800	-2.304	0.100
766.900	-6.160	0.100
767.000	-7.776	0.100
767.100	-5.053	0.100
767.200	-6.351	0.100
767.300	-8.545	0.100
767.400	-13.062	0.100
767.500	-3.198	0.100
767.600	-6.779	0.100
767.700	-9.182	0.100
767.800	-4.196	0.100
767.900	-2.248	0.100
768.000	-13.028	0.100
768.100	-2.150	0.100
768.200	-3.949	0.100
768.300	-3.626	0.100
768.400	-5.559	0.100
768.500	-8.879	0.100
768.600	-9.770	0.100
768.700	-10.998	0.100
768.800	-8.068	0.100
768.900	-8.710	0.100
769.000	-17.500	0.100
769.100	-9.784	0.100
769.200	6.387	0.100
769.300	-11.182	0.100
769.400	-6.024	0.100
769.500	-12.941	0.100
769.600	-0.098	0.100
769.700	-14.360	0.100
769.800	-2.868	0.100
769.900	-9.121	0.100
770.000	-13.415	0.100
770.100	-11.106	0.100
770.200	-8.347	0.100
770.300	-1.172	0.100
770.400	-5.623	0.100
770.500	-9.419	0.100
770.600	-11.694	0.100
770.700	-7.915	0.100
770.800	-5.035	0.100
770.900	-5.069	0.100
771.000	-12.907	0.100
771.100	-3.727	0.100
771.200	-16.125	0.100
771.300	-7.479	0.100
771.400	4.181	0.100
771.500	-2.303	0.100
771.600	-16.032	0.100
771.700	-2.980	0.100
771.800	-15.469	0.100
771.900	-1.773	0.100
772.000	-2.105	0.100
772.100	-7.777	0.100
772.200	-4.876	0.100
772.300	-0.811	0.100
772.400	-6.059	0.100
772.500	-1.439	0.100
772.600	-1.223	0.100
772.700	-10.191	0.100
772.800	-17.142	0.100
772.900	-11.708	0.100
773.000	-7.239	0.100
773.100	-8.554	0.100
773.200	-14.905	0.100
773.300	2.314	0.100
773.400	-4.438	0.100
773.500	-15.984	0.100
773.600	-8.510	0.100
773.700	-4.074	0.100
773.800	-4.476	0.100
773.900	-7.203	0.100
774.000	-16.319	0.100
774.100	-6.917	0.100
774.200	-6.385	0.100
774.300	-1.293	0.100
774.400	-7.690	0.100
774.500	-12.284	0.100
774.600	-7.011	0.100
774.700	-8.355	0.100
774.800	-13.766	0.100
774.900	3.896	0.100
775.000	-1.227	0.100
775.100	-6.715	0.100
775.200	-3.840	0.100
775.300	-15.909	0.100
775.400	-10.309	0.100
775.500	-12.306	0.100
775.600	-2.354	0.100
775.700	-8.700	0.100
775.800	-4.509	0.100
775.900	-4.678	0.100
776.000	-8.664	0.100
776.100	-6.566	0.100
776.200	-9.536	0.100
776.300	-3.496	0.100
776.400	-2.638	0.100
776.500	-8.315	0.100
776.600	-10.867	0.100
776.700	-7.095	0.100
776.800	-9.451	0.100
776.900	-1.631	0.100
777.000	-0.936	0.100
777.100	-12.338	0.100
777.200	-7.199	0.100
777.300	-3.590	0.100
777.400	-5.182	0.100
777.500	-8.954	0.100
777.600	2.642	0.100
777.700	-7.520	0.100
777.800	-2.253	0.100
777.900	-6.863	0.100
778.000	-10.555	0.100
778.100	-4.409	0.100
778.200	-11.547	0.100
778.300	-8.774	0.100
778.400	-7.928	0.100
778.500	-7.134	0.100
778.600	-5.158	0.100
778.700	-9.368	0.100
778.800	-13.534	0.100
778.900	-12.298	0.100
779.000	-6.297	0.100
779.100	-0.793	0.100
779.200	-1.110	0.100
779.300	-9.271	0.100
779.400	-9.430	0.100
779.500	-7.734	0.100
779.600	-10.586	0.100
779.700	-8.877	0.100
779.800	-12.428	0.100
779.900	-4.794	0.100
780.000	-0.763	0.100
780.100	-9.532	0.100
780.200	-5.153	0.100
780.300	-13.897	0.100
780.400	-13.359	0.100
780.500	-1.107	0.100
780.600	-4.469	0.100
780.700	-0.935	0.100
780.800	-0.787	0.100
780.900	9.095	0.100
781.000	11.432	0.100
781.100	6.530	0.100
781.200	10.159	0.100
781.300	2.697	0.100
781.400	26.147	0.100
781.500	20.462	0.100
781.600	24.241	0.100
781.700	17.534	0.100
781.800	13.810	0.100
781.900	16.977	0.100
782.000	16.617	0.100
782.100	18.258	0.100
782.200	20.042	0.100
782.300	12.289	0.100
782.400	18.712	0.100
782.500	19.249	0.100
782.600	21.867	0.100
782.700	16.047	0.100
782.800	14.138	0.100
782.900	11.928	0.100
783.000	17.942	0.100
783.100	22.806	0.100
783.200	17.023	0.100
783.300	8.420	0.100
783.400	12.545	0.100
783.500	18.964	0.100
783.600	18.843	0.100
783.700	8.729	0.100
783.800	19.248	0.100
783.900	21.216	0.100
784.000	10.770	0.100
784.100	14.587	0.100
784.200	13.656	0.100
784.300	11.528	0.100
784.400	9.670	0.100
784.500	18.129	0.100
784.600	17.578	0.100
784.700	4.109	0.100
784.800	14.960	0.100
784.900	28.131	0.100
785.000	17.163	0.100
785.100	13.315	0.100
785.200	16.043	0.100
785.300	11.656	0.100
785.400	13.574	0.100
785.500	-0.042	0.100
785.600	5.039	0.100
785.700	9.099	0.100
785.800	4.136	0.100
785.900	1.051	0.100
786.000	4.059	0.100
786.100	16.062	0.100
786.200	6.246	0.100
786.300	0.786	0.100
786.400	5.538	0.100
786.500	11.460	0.100
786.600	11.785	0.100
786.700	12.953	0.100
786.800	3.310	0.100
786.900	2.322	0.100
787.000	1.548	0.100
787.100	15.567	0.100
787.200	-11.267	0.100
787.300	0.183	0.100
787.400	4.331	0.100
787.500	12.634	0.100
787.600	7.428	0.100
787.700	4.705	0.100
787.800	8.064	0.100
787.900	8.538	0.100
788.000	3.590	0.100
788.100	8.605	0.100
788.200	5.741	0.100
788.300	1.695	0.100
788.400	-2.485	0.100
788.500	9.409	0.100
788.600	10.230	0.100
788.700	14.376	0.100
788.800	5.913	0.100
788.900	1.027	0.100
789.000	6.399	0.100
789.100	2.767	0.100
789.200	19.014	0.100
789.300	11.107	0.100
789.400	6.911	0.100
789.500	13.756	0.100
789.600	8.078	0.100
789.700	8.398	0.100
789.800	17.524	0.100
789.900	13.786	0.100
790.000	3.783	0.100
790.100	3.933	0.100
790.200	3.573	0.100
790.300	12.874	0.100
790.400	9.686	0.100
790.500	10.056	0.100
790.600	7.625	0.100
790.700	5.970	0.100
790.800	11.046	0.100
790.900	6.356	0.100
791.000	11.722	0.100
791.100	-0.162	0.100
791.200	9.955	0.100
791.300	6.733	0.100
791.400	18.975	0.100
791.500	11.825	0.100
791.600	6.183	0.100
791.700	13.106	0.100
791.800	9.028	0.100
791.900	16.567	0.100
792.000	1.427	0.100
792.100	6.737	0.100
792.200	8.273	0.100
792.300	11.397	0.100
792.400	15.495	0.100
792.500	11.000	0.100
792.600	3.814	0.100
792.700	9.770	0.100
792.800	11.176	0.100
792.900	5.119	0.100
793.000	13.376	0.100
793.100	10.368	0.100
793.200	6.594	0.100
793.300	4.383	0.100
793.400	9.502	0.100
793.500	12.727	0.100
793.600	14.282	0.100
793.700	5.104	0.100
793.800	15.551	0.100
793.900	11.973	0.100
794.000	7.427	0.100
794.100	11.085	0.100
794.200	23.360	0.100
794.300	15.730	0.100
794.400	17.501	0.100
794.500	11.403	0.100
794.600	15.326	0.100
794.700	19.169	0.100
794.800	6.635	0.100
794.900	12.672	0.100
795.000	9.374	0.100
795.100	16.931	0.100
795.200	17.598	0.100
795.300	10.590	0.100
795.400	15.889	0.100
795.500	12.220	0.100
795.600	21.940	0.100
795.700	22.051	0.100
795.800	21.357	0.100
795.900	14.242	0.100
796.000	14.140	0.100
796.100	10.870	0.100
796.200	17.440	0.100
796.300	16.923	0.100
796.400	6.027	0.100
796.500	9.220	0.100
796.600	12.492	0.100
796.700	12.511	0.100
796.800	9.050	0.100
796.900	15.814	0.100
797.000	17.332	0.100
797.100	18.576	0.100
797.200	15.516	0.100
797.300	17.251	0.100
797.400	20.882	0.100
797.500	12.778	0.100
797.600	12.528	0.100
797.700	4.120	0.100
797.800	16.677	0.100
797.900	23.058	0.100
798.000	15.819	0.100
798.100	18.083	0.100
798.200	14.584	0.100
798.300	11.500	0.100
798.400	6.256	0.100
798.500	14.025	0.100
798.600	21.161	0.100
798.700	7.719	0.100
798.800	19.269	0.100
798.900	14.171	0.100
799.000	22.503	0.100
799.100	20.852	0.100
799.200	10.821	0.100
799.300	22.433	0.100
799.400	16.352	0.100
799.500	13.970	0.100
799.600	18.315	0.100
799.700	7.921	0.100
799.800	17.497	0.100
799.900	24.867	0.100
800.000	18.292	0.100
