time /s	I /nA	E /V
0.100	-18.166	0.100
0.200	-9.203	0.100
0.300	-5.576	0.100
0.400	-9.858	0.100
0.500	-9.377	0.100
0.600	-10.591	0.100
0.700	-16.796	0.100
0.800	-25.000	0.100
0.900	-10.454	0.100
1.000	-11.877	0.100
1.100	-18.735	0.100
1.200	-0.964	0.100
1.300	-13.564	0.100
1.400	-14.479	0.100
1.500	-9.510	0.100
1.600	-19.909	0.100
1.700	-13.277	0.100
1.800	-1.759	0.100
1.900	-12.564	0.100
2.000	-8.043	0.100
2.100	-5.945	0.100
2.200	-4.609	0.100
2.300	-11.365	0.100
2.400	-16.126	0.100
2.500	-16.756	0.100
2.600	-16.023	0.100
2.700	-12.507	0.100
2.800	-16.340	0.100
2.900	-9.443	0.100
3.000	-5.503	0.100
3.100	-15.428	0.100
3.200	-8.159	0.100
3.300	-7.296	0.100
3.400	-10.639	0.100
3.500	-18.766	0.100
3.600	-13.999	0.100
3.700	-5.773	0.100
3.800	-14.004	0.100
3.900	-8.850	0.100
4.000	-17.242	0.100
4.100	-3.660	0.100
4.200	-9.907	0.100
4.300	-14.524	0.100
4.400	-8.857	0.100
4.500	-14.166	0.100
4.600	-0.656	0.100
4.700	-17.906	0.100
4.800	-11.768	0.100
4.900	-12.017	0.100
5.000	-12.684	0.100
5.100	-8.568	0.100
5.200	-4.623	0.100
5.300	-10.674	0.100
5.400	-15.446	0.100
5.500	-14.471	0.100
5.600	-1.466	0.100
5.700	-8.493	0.100
5.800	-15.981	0.100
5.900	-14.222	0.100
6.000	-11.671	0.100
6.100	-18.796	0.100
6.200	-13.287	0.100
6.300	-15.195	0.100
6.400	-2.005	0.100
6.500	-0.211	0.100
6.600	-18.028	0.100
6.700	-10.497	0.100
6.800	-8.223	0.100
6.900	-10.423	0.100
7.000	-9.156	0.100
7.100	-5.895	0.100
7.200	-5.370	0.100
7.300	-13.762	0.100
7.400	-26.026	0.100
7.500	-3.130	0.100
7.600	-0.164	0.100
7.700	0.897	0.100
7.800	-19.151	0.100
7.900	-1.686	0.100
8.000	-25.075	0.100
8.100	-6.739	0.100
8.200	-15.117	0.100
8.300	-16.960	0.100
8.400	-5.123	0.100
8.500	-5.297	0.100
8.600	-5.120	0.100
8.700	-5.909	0.100
8.800	-7.642	0.100
8.900	-11.535	0.100
9.000	-8.575	0.100
9.100	-11.553	0.100
9.200	-13.483	0.100
9.300	-21.492	0.100
9.400	-7.789	0.100
9.500	-16.175	0.100
9.600	-8.387	0.100
9.700	-6.195	0.100
9.800	-6.704	0.100
9.900	0.448	0.100
10.000	-15.003	0.100
10.100	-13.074	0.100
10.200	-6.804	0.100
10.300	-14.305	0.100
10.400	-20.337	0.100
10.500	-17.394	0.100
10.600	-13.587	0.100
10.700	-7.272	0.100
10.800	-6.999	0.100
10.900	-19.961	0.100
11.000	-7.588	0.100
11.100	-1.439	0.100
11.200	-2.127	0.100
11.300	-4.561	0.100
11.400	-18.140	0.100
11.500	-8.948	0.100
11.600	-10.856	0.100
11.700	-7.034	0.100
11.800	-13.385	0.100
11.900	-16.120	0.100
12.000	-19.569	0.100
12.100	-8.159	0.100
12.200	-10.241	0.100
12.300	-1.297	0.100
12.400	-8.622	0.100
12.500	-12.120	0.100
12.600	-15.220	0.100
12.700	-3.355	0.100
12.800	-8.683	0.100
12.900	-7.482	0.100
13.000	1.616	0.100
13.100	-13.174	0.100
13.200	-11.984	0.100
13.300	-9.400	0.100
13.400	-14.179	0.100
13.500	-10.738	0.100
13.600	-15.508	0.100
13.700	-21.965	0.100
13.800	-18.532	0.100
13.900	-14.756	0.100
14.000	-3.488	0.100
14.100	-7.673	0.100
14.200	-9.727	0.100
14.300	-12.114	0.100
14.400	-12.962	0.100
14.500	-14.863	0.100
14.600	-5.771	0.100
14.700	-15.094	0.100
14.800	-10.517	0.100
14.900	-3.884	0.100
15.000	-15.367	0.100
15.100	-6.420	0.100
15.200	-5.073	0.100
15.300	-21.911	0.100
15.400	-7.540	0.100
15.500	-9.914	0.100
15.600	-6.467	0.100
15.700	-4.367	0.100
15.800	-16.891	0.100
15.900	-10.680	0.100
16.000	-8.626	0.100
16.100	-24.237	0.100
16.200	-12.953	0.100
16.300	4.407	0.100
16.400	-12.307	0.100
16.500	-7.968	0.100
16.600	-11.610	0.100
16.700	-6.085	0.100
16.800	-16.489	0.100
16.900	-4.582	0.100
17.000	-8.616	0.100
17.100	-3.321	0.100
17.200	-16.457	0.100
17.300	-11.552	0.100
17.400	-6.290	0.100
17.500	-8.168	0.100
17.600	-10.319	0.100
17.700	-7.929	0.100
17.800	-12.792	0.100
17.900	-6.884	0.100
18.000	-9.475	0.100
18.100	-7.709	0.100
18.200	-6.278	0.100
18.300	-6.898	0.100
18.400	-10.817	0.100
18.500	-9.566	0.100
18.600	-1.610	0.100
18.700	-12.347	0.100
18.800	-14.855	0.100
18.900	-6.377	0.100
19.000	-5.259	0.100
19.100	-12.792	0.100
19.200	-5.984	0.100
19.300	-5.822	0.100
19.400	-4.066	0.100
19.500	-8.000	0.100
19.600	-15.217	0.100
19.700	-4.983	0.100
19.800	-15.732	0.100
19.900	-12.978	0.100
20.000	-8.286	0.100
20.100	-10.978	0.100
20.200	-8.806	0.100
20.300	-10.233	0.100
20.400	-13.317	0.100
20.500	-10.681	0.100
20.600	-6.695	0.100
20.700	-9.926	0.100
20.800	-13.060	0.100
20.900	-7.025	0.100
21.000	-11.816	0.100
21.100	-9.756	0.100
21.200	-11.597	0.100
21.300	-6.799	0.100
21.400	-9.224	0.100
21.500	-9.172	0.100
21.600	-14.614	0.100
21.700	-17.832	0.100
21.800	-8.471	0.100
21.900	-1.337	0.100
22.000	-10.892	0.100
22.100	-1.335	0.100
22.200	-15.016	0.100
22.300	-12.994	0.100
22.400	-6.384	0.100
22.500	-16.337	0.100
22.600	-3.591	0.100
22.700	-4.946	0.100
22.800	-9.615	0.100
22.900	-11.413	0.100
23.000	-8.520	0.100
23.100	-14.821	0.100
23.200	-1.463	0.100
23.300	-6.214	0.100
23.400	-0.613	0.100
23.500	-17.043	0.100
23.600	-9.746	0.100
23.700	-15.102	0.100
23.800	-2.142	0.100
23.900	-12.613	0.100
24.000	-14.257	0.100
24.100	-6.156	0.100
24.200	-14.031	0.100
24.300	-5.635	0.100
24.400	-14.595	0.100
24.500	-5.980	0.100
24.600	-15.196	0.100
24.700	-8.046	0.100
24.800	-11.821	0.100
24.900	-10.337	0.100
25.000	-0.495	0.100
25.100	-9.395	0.100
25.200	-2.731	0.100
25.300	-9.514	0.100
25.400	-8.581	0.100
25.500	-12.165	0.100
25.600	-11.019	0.100
25.700	-10.354	0.100
25.800	-11.453	0.100
25.900	-10.124	0.100
26.000	-2.264	0.100
26.100	-8.631	0.100
26.200	-12.746	0.100
26.300	-4.197	0.100
26.400	-11.752	0.100
26.500	-18.338	0.100
26.600	-13.486	0.100
26.700	-4.821	0.100
26.800	0.157	0.100
26.900	-8.322	0.100
27.000	-14.436	0.100
27.100	-13.943	0.100
27.200	-9.123	0.100
27.300	-11.170	0.100
27.400	-12.324	0.100
27.500	-10.569	0.100
27.600	-1.849	0.100
27.700	-5.974	0.100
27.800	-11.866	0.100
27.900	-6.097	0.100
28.000	-8.540	0.100
28.100	-6.944	0.100
28.200	-7.791	0.100
28.300	-17.459	0.100
28.400	-5.754	0.100
28.500	-11.239	0.100
28.600	-7.398	0.100
28.700	-7.035	0.100
28.800	-15.077	0.100
28.900	-12.989	0.100
29.000	-4.562	0.100
29.100	-10.381	0.100
29.200	-10.640	0.100
29.300	-13.352	0.100
29.400	-15.874	0.100
29.500	-12.941	0.100
29.600	-6.941	0.100
29.700	-12.251	0.100
29.800	-3.440	0.100
29.900	-2.209	0.100
30.000	-9.489	0.100
30.100	-7.594	0.100
30.200	-5.776	0.100
30.300	-5.961	0.100
30.400	-9.924	0.100
30.500	-16.480	0.100
30.600	-10.657	0.100
30.700	-5.474	0.100
30.800	-4.533	0.100
30.900	-2.539	0.100
31.000	0.532	0.100
31.100	-6.935	0.100
31.200	-2.293	0.100
31.300	2.071	0.100
31.400	-9.984	0.100
31.500	-5.708	0.100
31.600	-5.478	0.100
31.700	-2.060	0.100
31.800	-5.898	0.100
31.900	6.768	0.100
32.000	-7.499	0.100
32.100	-10.442	0.100
32.200	-11.938	0.100
32.300	-0.602	0.100
32.400	-5.400	0.100
32.500	-0.015	0.100
32.600	-0.315	0.100
32.700	3.606	0.100
32.800	-1.916	0.100
32.900	-11.329	0.100
33.000	-2.076	0.100
33.100	9.157	0.100
33.200	6.702	0.100
33.300	2.948	0.100
33.400	0.917	0.100
33.500	-4.057	0.100
33.600	2.953	0.100
33.700	2.487	0.100
33.800	-4.488	0.100
33.900	1.686	0.100
34.000	5.742	0.100
34.100	6.771	0.100
34.200	-0.061	0.100
34.300	-4.871	0.100
34.400	-2.027	0.100
34.500	0.489	0.100
34.600	0.558	0.100
34.700	3.130	0.100
34.800	1.715	0.100
34.900	-1.475	0.100
35.000	-1.357	0.100
35.100	-4.659	0.100
35.200	-0.894	0.100
35.300	3.553	0.100
35.400	1.295	0.100
35.500	-0.334	0.100
35.600	-11.651	0.100
35.700	7.547	0.100
35.800	5.614	0.100
35.900	-8.160	0.100
36.000	1.805	0.100
36.100	-2.235	0.100
36.200	1.392	0.100
36.300	-4.320	0.100
36.400	-5.052	0.100
36.500	-1.244	0.100
36.600	6.503	0.100
36.700	3.602	0.100
36.800	2.187	0.100
36.900	1.477	0.100
37.000	-8.727	0.100
37.100	-4.498	0.100
37.200	6.163	0.100
37.300	8.940	0.100
37.400	-1.197	0.100
37.500	7.897	0.100
37.600	-4.717	0.100
37.700	0.376	0.100
37.800	-5.695	0.100
37.900	2.837	0.100
38.000	-1.307	0.100
38.100	5.137	0.100
38.200	-4.536	0.100
38.300	-11.225	0.100
38.400	1.835	0.100
38.500	0.794	0.100
38.600	2.406	0.100
38.700	4.123	0.100
38.800	4.948	0.100
38.900	0.905	0.100
39.000	2.594	0.100
39.100	2.349	0.100
39.200	-5.565	0.100
39.300	-0.400	0.100
39.400	-0.384	0.100
39.500	3.837	0.100
39.600	-2.387	0.100
39.700	8.828	0.100
39.800	-8.202	0.100
39.900	3.336	0.100
40.000	0.606	0.100
40.100	-2.107	0.100
40.200	5.347	0.100
40.300	-6.334	0.100
40.400	13.065	0.100
40.500	1.303	0.100
40.600	-0.548	0.100
40.700	6.958	0.100
40.800	4.905	0.100
40.900	-1.309	0.100
41.000	5.093	0.100
41.100	2.374	0.100
41.200	-6.072	0.100
41.300	6.676	0.100
41.400	13.135	0.100
41.500	6.326	0.100
41.600	10.218	0.100
41.700	1.775	0.100
41.800	5.075	0.100
41.900	3.043	0.100
42.000	-2.396	0.100
42.100	0.989	0.100
42.200	4.989	0.100
42.300	6.105	0.100
42.400	5.012	0.100
42.500	-1.937	0.100
42.600	-4.686	0.100
42.700	-1.482	0.100
42.800	6.208	0.100
42.900	14.388	0.100
43.000	5.570	0.100
43.100	4.704	0.100
43.200	7.354	0.100
43.300	2.319	0.100
43.400	4.178	0.100
43.500	4.469	0.100
43.600	5.627	0.100
43.700	6.097	0.100
43.800	2.644	0.100
43.900	2.951	0.100
44.000	5.272	0.100
44.100	1.546	0.100
44.200	4.048	0.100
44.300	7.540	0.100
44.400	7.095	0.100
44.500	6.447	0.100
44.600	9.759	0.100
44.700	4.476	0.100
44.800	5.400	0.100
44.900	7.413	0.100
45.000	3.495	0.100
45.100	6.117	0.100
45.200	5.123	0.100
45.300	6.670	0.100
45.400	3.295	0.100
45.500	6.502	0.100
45.600	12.130	0.100
45.700	3.136	0.100
45.800	6.064	0.100
45.900	4.596	0.100
46.000	7.882	0.100
46.100	1.878	0.100
46.200	8.113	0.100
46.300	7.878	0.100
46.400	3.553	0.100
46.500	14.682	0.100
46.600	11.808	0.100
46.700	-0.377	0.100
46.800	-2.241	0.100
46.900	7.632	0.100
47.000	9.155	0.100
47.100	7.070	0.100
47.200	9.190	0.100
47.300	2.353	0.100
47.400	9.922	0.100
47.500	6.135	0.100
47.600	4.213	0.100
47.700	10.866	0.100
47.800	13.308	0.100
47.900	11.046	0.100
48.000	-3.111	0.100
48.100	6.564	0.100
48.200	4.166	0.100
48.300	-2.001	0.100
48.400	4.739	0.100
48.500	11.294	0.100
48.600	5.633	0.100
48.700	4.725	0.100
48.800	7.738	0.100
48.900	9.489	0.100
49.000	0.752	0.100
49.100	10.049	0.100
49.200	8.307	0.100
49.300	-1.352	0.100
49.400	12.342	0.100
49.500	16.467	0.100
49.600	0.146	0.100
49.700	1.383	0.100
49.800	1.722	0.100
49.900	8.958	0.100
50.000	14.681	0.100
50.100	15.101	0.100
50.200	-3.689	0.100
50.300	9.565	0.100
50.400	13.630	0.100
50.500	11.389	0.100
50.600	4.643	0.100
50.700	13.251	0.100
50.800	5.183	0.100
50.900	5.452	0.100
51.000	13.532	0.100
51.100	9.143	0.100
51.200	12.604	0.100
51.300	3.453	0.100
51.400	3.398	0.100
51.500	0.133	0.100
51.600	5.954	0.100
51.700	3.646	0.100
51.800	10.241	0.100
51.900	13.639	0.100
52.000	5.851	0.100
52.100	15.068	0.100
52.200	11.228	0.100
52.300	3.784	0.100
52.400	7.226	0.100
52.500	10.963	0.100
52.600	9.294	0.100
52.700	12.550	0.100
52.800	6.320	0.100
52.900	10.552	0.100
53.000	7.405	0.100
53.100	9.464	0.100
53.200	4.877	0.100
53.300	11.451	0.100
53.400	10.828	0.100
53.500	9.810	0.100
53.600	12.478	0.100
53.700	6.344	0.100
53.800	9.601	0.100
53.900	12.378	0.100
54.000	8.248	0.100
54.100	2.318	0.100
54.200	9.684	0.100
54.300	15.056	0.100
54.400	0.302	0.100
54.500	5.460	0.100
54.600	13.761	0.100
54.700	9.913	0.100
54.800	1.425	0.100
54.900	23.595	0.100
55.000	10.023	0.100
55.100	8.659	0.100
55.200	9.639	0.100
55.300	8.328	0.100
55.400	7.746	0.100
55.500	2.508	0.100
55.600	15.628	0.100
55.700	11.638	0.100
55.800	16.731	0.100
55.900	7.577	0.100
56.000	3.034	0.100
56.100	10.001	0.100
56.200	8.341	0.100
56.300	10.697	0.100
56.400	17.181	0.100
56.500	10.622	0.100
56.600	8.966	0.100
56.700	4.039	0.100
56.800	10.341	0.100
56.900	12.825	0.100
57.000	11.319	0.100
57.100	7.849	0.100
57.200	7.640	0.100
57.300	17.247	0.100
57.400	13.235	0.100
57.500	7.410	0.100
57.600	1.640	0.100
57.700	4.922	0.100
57.800	13.970	0.100
57.900	14.039	0.100
58.000	15.116	0.100
58.100	12.878	0.100
58.200	13.600	0.100
58.300	10.750	0.100
58.400	3.189	0.100
58.500	11.858	0.100
58.600	12.583	0.100
58.700	16.178	0.100
58.800	14.348	0.100
58.900	10.462	0.100
59.000	13.026	0.100
59.100	4.204	0.100
59.200	15.364	0.100
59.300	18.631	0.100
59.400	6.776	0.100
59.500	23.814	0.100
59.600	15.934	0.100
59.700	13.087	0.100
59.800	8.237	0.100
59.900	17.469	0.100
60.000	14.890	0.100
60.100	15.959	0.100
60.200	11.308	0.100
60.300	13.022	0.100
60.400	6.648	0.100
60.500	15.709	0.100
60.600	8.518	0.100
60.700	9.196	0.100
60.800	4.613	0.100
60.900	13.569	0.100
61.000	15.885	0.100
61.100	7.827	0.100
61.200	10.864	0.100
61.300	16.256	0.100
61.400	15.872	0.100
61.500	11.438	0.100
61.600	12.291	0.100
61.700	5.801	0.100
61.800	21.942	0.100
61.900	15.717	0.100
62.000	14.372	0.100
62.100	9.451	0.100
62.200	15.178	0.100
62.300	9.943	0.100
62.400	16.486	0.100
62.500	14.964	0.100
62.600	14.317	0.100
62.700	18.853	0.100
62.800	13.976	0.100
62.900	9.703	0.100
63.000	10.151	0.100
63.100	7.748	0.100
63.200	18.470	0.100
63.300	18.606	0.100
63.400	16.747	0.100
63.500	18.776	0.100
63.600	15.024	0.100
63.700	18.416	0.100
63.800	8.874	0.100
63.900	16.785	0.100
64.000	14.035	0.100
64.100	14.403	0.100
64.200	14.678	0.100
64.300	19.774	0.100
64.400	9.629	0.100
64.500	18.055	0.100
64.600	13.790	0.100
64.700	19.224	0.100
64.800	22.513	0.100
64.900	10.751	0.100
65.000	10.917	0.100
65.100	14.473	0.100
65.200	6.711	0.100
65.300	18.373	0.100
65.400	21.164	0.100
65.500	22.100	0.100
65.600	12.277	0.100
65.700	14.456	0.100
65.800	25.596	0.100
65.900	14.215	0.100
66.000	11.034	0.100
66.100	12.147	0.100
66.200	11.203	0.100
66.300	7.246	0.100
66.400	12.768	0.100
66.500	20.051	0.100
66.600	17.212	0.100
66.700	13.550	0.100
66.800	26.892	0.100
66.900	13.469	0.100
67.000	13.438	0.100
67.100	19.024	0.100
67.200	17.014	0.100
67.300	15.362	0.100
67.400	16.902	0.100
67.500	18.086	0.100
67.600	19.811	0.100
67.700	13.638	0.100
67.800	7.989	0.100
67.900	11.843	0.100
68.000	20.890	0.100
68.100	23.041	0.100
68.200	19.631	0.100
68.300	6.873	0.100
68.400	19.452	0.100
68.500	24.136	0.100
68.600	18.438	0.100
68.700	16.390	0.100
68.800	5.023	0.100
68.900	16.708	0.100
69.000	19.529	0.100
69.100	17.869	0.100
69.200	17.763	0.100
69.300	14.740	0.100
69.400	18.778	0.100
69.500	16.555	0.100
69.600	20.219	0.100
69.700	13.070	0.100
69.800	19.249	0.100
69.900	15.366	0.100
70.000	20.392	0.100
70.100	23.341	0.100
70.200	28.580	0.100
70.300	19.419	0.100
70.400	22.473	0.100
70.500	10.171	0.100
70.600	31.136	0.100
70.700	13.866	0.100
70.800	16.974	0.100
70.900	24.705	0.100
71.000	14.222	0.100
71.100	16.541	0.100
71.200	17.914	0.100
71.300	14.685	0.100
71.400	8.092	0.100
71.500	24.430	0.100
71.600	21.751	0.100
71.700	21.732	0.100
71.800	11.980	0.100
71.900	15.156	0.100
72.000	17.462	0.100
72.100	20.676	0.100
72.200	15.403	0.100
72.300	20.257	0.100
72.400	22.749	0.100
72.500	17.250	0.100
72.600	26.013	0.100
72.700	17.888	0.100
72.800	21.503	0.100
72.900	19.514	0.100
73.000	14.113	0.100
73.100	23.245	0.100
73.200	25.322	0.100
73.300	18.146	0.100
73.400	13.904	0.100
73.500	19.961	0.100
73.600	21.502	0.100
73.700	19.714	0.100
73.800	23.214	0.100
73.900	23.018	0.100
74.000	19.739	0.100
74.100	14.015	0.100
74.200	15.804	0.100
74.300	12.725	0.100
74.400	14.650	0.100
74.500	30.398	0.100
74.600	17.800	0.100
74.700	19.534	0.100
74.800	16.966	0.100
74.900	20.140	0.100
75.000	22.968	0.100
75.100	22.554	0.100
75.200	20.475	0.100
75.300	21.686	0.100
75.400	14.757	0.100
75.500	19.852	0.100
75.600	23.033	0.100
75.700	16.758	0.100
75.800	22.694	0.100
75.900	19.642	0.100
76.000	25.791	0.100
76.100	16.236	0.100
76.200	20.711	0.100
76.300	16.549	0.100
76.400	12.579	0.100
76.500	17.989	0.100
76.600	21.320	0.100
76.700	22.868	0.100
76.800	9.664	0.100
76.900	22.801	0.100
77.000	22.746	0.100
77.100	19.625	0.100
77.200	20.690	0.100
77.300	23.039	0.100
77.400	19.449	0.100
77.500	18.336	0.100
77.600	15.023	0.100
77.700	17.916	0.100
77.800	15.810	0.100
77.900	22.553	0.100
78.000	20.357	0.100
78.100	21.403	0.100
78.200	27.042	0.100
78.300	23.041	0.100
78.400	27.175	0.100
78.500	23.304	0.100
78.600	15.580	0.100
78.700	16.986	0.100
78.800	21.429	0.100
78.900	19.954	0.100
79.000	22.333	0.100
79.100	23.010	0.100
79.200	23.012	0.100
79.300	18.277	0.100
79.400	25.667	0.100
79.500	22.494	0.100
79.600	17.517	0.100
79.700	17.539	0.100
79.800	26.806	0.100
79.900	26.773	0.100
80.000	8.721	0.100
80.100	30.483	0.100
80.200	24.876	0.100
80.300	18.541	0.100
80.400	20.712	0.100
80.500	19.669	0.100
80.600	24.179	0.100
80.700	12.812	0.100
80.800	25.560	0.100
80.900	28.032	0.100
81.000	13.473	0.100
81.100	21.532	0.100
81.200	27.959	0.100
81.300	25.567	0.100
81.400	25.565	0.100
81.500	26.970	0.100
81.600	17.779	0.100
81.700	18.063	0.100
81.800	24.358	0.100
81.900	17.757	0.100
82.000	23.706	0.100
82.100	14.741	0.100
82.200	18.156	0.100
82.300	24.409	0.100
82.400	19.684	0.100
82.500	19.245	0.100
82.600	20.022	0.100
82.700	20.240	0.100
82.800	27.519	0.100
82.900	13.849	0.100
83.000	17.480	0.100
83.100	17.478	0.100
83.200	21.543	0.100
83.300	25.972	0.100
83.400	21.224	0.100
83.500	29.150	0.100
83.600	31.411	0.100
83.700	28.923	0.100
83.800	13.971	0.100
83.900	24.221	0.100
84.000	25.002	0.100
84.100	21.907	0.100
84.200	14.439	0.100
84.300	30.939	0.100
84.400	23.802	0.100
84.500	19.753	0.100
84.600	25.958	0.100
84.700	25.087	0.100
84.800	19.908	0.100
84.900	25.255	0.100
85.000	16.847	0.100
85.100	14.782	0.100
85.200	19.378	0.100
85.300	27.271	0.100
85.400	14.014	0.100
85.500	23.775	0.100
85.600	26.194	0.100
85.700	24.578	0.100
85.800	27.183	0.100
85.900	25.495	0.100
86.000	26.683	0.100
86.100	21.882	0.100
86.200	17.219	0.100
86.300	21.694	0.100
86.400	26.101	0.100
86.500	20.440	0.100
86.600	20.209	0.100
86.700	26.427	0.100
86.800	16.322	0.100
86.900	23.426	0.100
87.000	24.432	0.100
87.100	29.603	0.100
87.200	19.826	0.100
87.300	19.794	0.099
87.400	25.185	0.099
87.500	27.189	0.100
87.600	16.835	0.099
87.700	21.792	0.100
87.800	23.866	0.100
87.900	18.439	0.100
88.000	28.204	0.100
88.100	23.005	0.100
88.200	16.828	0.100
88.300	25.650	0.099
88.400	26.322	0.100
88.500	23.038	0.100
88.600	23.287	0.100
88.700	24.465	0.100
88.800	24.788	0.099
88.900	14.325	0.099
89.000	30.658	0.099
89.100	27.915	0.099
89.200	29.776	0.100
89.300	27.057	0.100
89.400	23.583	0.100
89.500	27.089	0.100
89.600	22.817	0.100
89.700	24.365	0.100
89.800	21.738	0.099
89.900	30.193	0.100
90.000	18.134	0.099
90.100	13.106	0.099
90.200	31.022	0.099
90.300	27.035	0.099
90.400	24.660	0.099
90.500	17.910	0.099
90.600	19.669	0.099
90.700	27.645	0.099
90.800	20.699	0.099
90.900	18.252	0.099
91.000	19.293	0.099
91.100	18.683	0.099
91.200	23.214	0.099
91.300	13.999	0.099
91.400	24.211	0.099
91.500	17.656	0.099
91.600	17.906	0.099
91.700	19.610	0.100
91.800	20.719	0.099
91.900	17.392	0.099
92.000	20.907	0.099
92.100	13.899	0.099
92.200	12.401	0.100
92.300	18.530	0.099
92.400	18.215	0.099
92.500	18.208	0.099
92.600	13.045	0.099
92.700	10.432	0.099
92.800	21.280	0.099
92.900	14.552	0.099
93.000	16.517	0.099
93.100	19.551	0.099
93.200	15.091	0.099
93.300	16.747	0.099
93.400	16.361	0.099
93.500	7.743	0.099
93.600	12.526	0.099
93.700	12.000	0.099
93.800	18.605	0.099
93.900	19.593	0.099
94.000	14.144	0.099
94.100	13.441	0.099
94.200	17.352	0.099
94.300	14.925	0.099
94.400	5.407	0.099
94.500	12.643	0.099
94.600	18.333	0.099
94.700	6.127	0.099
94.800	12.693	0.099
94.900	20.047	0.099
95.000	9.333	0.099
95.100	11.032	0.099
95.200	14.765	0.099
95.300	11.430	0.099
95.400	18.213	0.099
95.500	15.986	0.099
95.600	12.896	0.099
95.700	18.950	0.099
95.800	8.790	0.099
95.900	13.794	0.099
96.000	9.325	0.099
96.100	17.212	0.099
96.200	13.268	0.099
96.300	12.841	0.099
96.400	0.971	0.099
96.500	10.639	0.099
96.600	12.040	0.099
96.700	18.656	0.099
96.800	5.300	0.099
96.900	-0.892	0.099
97.000	21.402	0.099
97.100	8.506	0.099
97.200	18.150	0.099
97.300	5.690	0.099
97.400	8.218	0.099
97.500	17.379	0.099
97.600	13.009	0.099
97.700	12.221	0.099
97.800	10.378	0.099
97.900	4.510	0.099
98.000	9.137	0.099
98.100	12.400	0.099
98.200	22.664	0.099
98.300	9.247	0.099
98.400	7.062	0.099
98.500	7.403	0.099
98.600	9.193	0.099
98.700	5.517	0.099
98.800	17.169	0.099
98.900	12.768	0.099
99.000	6.045	0.099
99.100	13.181	0.099
99.200	9.347	0.099
99.300	2.428	0.099
99.400	4.417	0.099
99.500	16.504	0.099
99.600	6.890	0.099
99.700	26.112	0.099
99.800	9.256	0.099
99.900	5.294	0.099
100.000	8.021	0.099
100.100	2.003	0.099
100.200	10.570	0.099
100.300	25.699	0.099
100.400	14.681	0.099
100.500	15.054	0.099
100.600	11.006	0.099
100.700	14.607	0.099
100.800	8.146	0.099
100.900	5.927	0.099
101.000	13.473	0.099
101.100	15.070	0.099
101.200	7.766	0.099
101.300	8.920	0.099
101.400	7.852	0.099
101.500	16.314	0.099
101.600	11.114	0.099
101.700	10.942	0.099
101.800	11.391	0.099
101.900	-0.774	0.099
102.000	15.960	0.099
102.100	23.493	0.099
102.200	13.909	0.099
102.300	5.965	0.099
102.400	7.992	0.099
102.500	10.488	0.099
102.600	13.994	0.099
102.700	10.349	0.099
102.800	8.171	0.099
102.900	11.719	0.099
103.000	12.206	0.099
103.100	12.340	0.099
103.200	10.909	0.099
103.300	18.332	0.099
103.400	7.694	0.099
103.500	0.178	0.099
103.600	21.090	0.099
103.700	11.114	0.099
103.800	16.921	0.099
103.900	0.376	0.099
104.000	9.182	0.099
104.100	5.058	0.099
104.200	-4.490	0.099
104.300	14.210	0.099
104.400	8.749	0.099
104.500	7.128	0.099
104.600	16.666	0.099
104.700	11.556	0.099
104.800	7.216	0.099
104.900	4.209	0.099
105.000	-1.007	0.099
105.100	0.933	0.099
105.200	17.363	0.099
105.300	9.002	0.099
105.400	11.121	0.099
105.500	5.766	0.099
105.600	8.430	0.099
105.700	7.913	0.099
105.800	3.498	0.099
105.900	10.337	0.099
106.000	11.892	0.099
106.100	2.465	0.099
106.200	10.826	0.099
106.300	6.767	0.099
106.400	7.049	0.099
106.500	8.684	0.099
106.600	1.323	0.099
106.700	6.902	0.099
106.800	11.128	0.099
106.900	6.404	0.099
107.000	1.456	0.099
107.100	7.288	0.099
107.200	5.291	0.099
107.300	11.013	0.099
107.400	2.820	0.099
107.500	14.186	0.099
107.600	11.828	0.099
107.700	17.652	0.099
107.800	2.817	0.099
107.900	0.053	0.099
108.000	17.603	0.099
108.100	4.580	0.099
108.200	7.274	0.099
108.300	7.183	0.099
108.400	-7.805	0.099
108.500	11.423	0.099
108.600	12.485	0.099
108.700	8.159	0.099
108.800	3.319	0.099
108.900	3.101	0.099
109.000	9.306	0.099
109.100	5.305	0.099
109.200	1.512	0.099
109.300	11.297	0.099
109.400	11.733	0.099
109.500	10.116	0.099
109.600	0.308	0.099
109.700	5.471	0.099
109.800	6.129	0.099
109.900	3.877	0.099
110.000	-1.885	0.099
110.100	13.883	0.099
110.200	-3.852	0.099
110.300	13.557	0.099
110.400	9.635	0.099
110.500	3.414	0.099
110.600	1.806	0.099
110.700	15.227	0.099
110.800	9.788	0.099
110.900	9.553	0.099
111.000	-3.017	0.099
111.100	3.062	0.099
111.200	5.222	0.099
111.300	-3.213	0.099
111.400	5.191	0.099
111.500	5.646	0.099
111.600	9.245	0.099
111.700	0.727	0.099
111.800	10.320	0.099
111.900	3.702	0.099
112.000	0.007	0.099
112.100	5.933	0.099
112.200	15.236	0.099
112.300	4.836	0.099
112.400	1.637	0.099
112.500	-4.289	0.099
112.600	7.401	0.099
112.700	9.632	0.099
112.800	2.486	0.099
112.900	2.096	0.099
113.000	3.967	0.099
113.100	4.922	0.099
113.200	2.010	0.099
113.300	4.698	0.099
113.400	-2.663	0.099
113.500	2.172	0.099
113.600	1.595	0.099
113.700	5.538	0.099
113.800	-2.424	0.099
113.900	5.308	0.099
114.000	-2.341	0.099
114.100	-1.661	0.099
114.200	4.898	0.099
114.300	12.087	0.099
114.400	8.836	0.099
114.500	8.279	0.099
114.600	9.282	0.099
114.700	-5.752	0.099
114.800	0.345	0.099
114.900	1.420	0.099
115.000	4.074	0.099
115.100	11.058	0.099
115.200	2.714	0.099
115.300	-3.241	0.099
115.400	1.004	0.099
115.500	11.738	0.099
115.600	7.733	0.099
115.700	5.923	0.099
115.800	3.555	0.099
115.900	0.148	0.099
116.000	0.095	0.099
116.100	-2.862	0.099
116.200	10.019	0.099
116.300	-2.272	0.099
116.400	10.239	0.099
116.500	2.729	0.099
116.600	3.917	0.099
116.700	-1.738	0.099
116.800	7.124	0.099
116.900	-1.466	0.099
117.000	5.158	0.099
117.100	-3.143	0.099
117.200	-0.740	0.099
117.300	7.721	0.099
117.400	5.055	0.099
117.500	5.801	0.099
117.600	-6.832	0.099
117.700	0.137	0.099
117.800	7.360	0.099
117.900	2.298	0.099
118.000	-3.648	0.099
118.100	-1.882	0.099
118.200	0.237	0.099
118.300	13.496	0.099
118.400	3.426	0.099
118.500	5.923	0.099
118.600	-7.003	0.099
118.700	1.533	0.099
118.800	0.970	0.099
118.900	5.495	0.099
119.000	0.607	0.099
119.100	-1.039	0.099
119.200	-0.897	0.099
119.300	6.102	0.099
119.400	0.364	0.099
119.500	2.980	0.099
119.600	1.180	0.099
119.700	-5.659	0.099
119.800	0.654	0.099
119.900	-6.339	0.099
120.000	-1.928	0.099
120.100	7.026	0.099
120.200	1.458	0.099
120.300	5.086	0.099
120.400	-5.809	0.099
120.500	-2.287	0.099
120.600	-1.562	0.099
120.700	4.915	0.099
120.800	-0.673	0.099
120.900	9.979	0.099
121.000	-5.040	0.099
121.100	-2.602	0.099
121.200	9.149	0.099
121.300	2.339	0.099
121.400	8.233	0.099
121.500	2.999	0.099
121.600	-8.575	0.099
121.700	7.140	0.099
121.800	0.733	0.099
121.900	-7.530	0.099
122.000	7.069	0.099
122.100	7.541	0.099
122.200	2.474	0.099
122.300	-8.916	0.099
122.400	3.629	0.099
122.500	6.249	0.099
122.600	1.403	0.099
122.700	-6.453	0.099
122.800	-3.157	0.099
122.900	4.567	0.099
123.000	7.152	0.099
123.100	-5.144	0.099
123.200	-2.544	0.099
123.300	7.339	0.099
123.400	2.434	0.099
123.500	-2.355	0.099
123.600	-9.341	0.099
123.700	-12.327	0.099
123.800	-1.776	0.099
123.900	16.350	0.099
124.000	1.504	0.099
124.100	-3.647	0.099
124.200	-10.323	0.099
124.300	-8.277	0.099
124.400	6.546	0.099
124.500	11.083	0.099
124.600	0.998	0.099
124.700	1.252	0.099
124.800	3.318	0.099
124.900	3.739	0.099
125.000	-8.522	0.099
125.100	-4.110	0.099
125.200	0.330	0.099
125.300	-6.991	0.099
125.400	6.700	0.099
125.500	1.876	0.099
125.600	3.015	0.099
125.700	-3.045	0.099
125.800	7.118	0.099
125.900	-9.877	0.099
126.000	3.425	0.099
126.100	-2.098	0.099
126.200	-4.043	0.099
126.300	-6.358	0.099
126.400	-2.490	0.099
126.500	-4.793	0.099
126.600	-4.973	0.099
126.700	3.642	0.099
126.800	4.846	0.099
126.900	3.119	0.099
127.000	1.664	0.099
127.100	-1.374	0.099
127.200	0.944	0.099
127.300	2.314	0.099
127.400	-1.160	0.099
127.500	2.987	0.099
127.600	1.240	0.099
127.700	-1.861	0.099
127.800	-0.653	0.099
127.900	-4.002	0.099
128.000	-10.211	0.099
128.100	-1.552	0.099
128.200	-0.069	0.099
128.300	-9.399	0.099
128.400	0.157	0.099
128.500	-6.885	0.099
128.600	-1.612	0.099
128.700	9.132	0.099
128.800	6.837	0.099
128.900	-0.540	0.099
129.000	-9.727	0.099
129.100	-3.438	0.099
129.200	1.721	0.099
129.300	-3.626	0.099
129.400	-9.293	0.099
129.500	-2.159	0.099
129.600	-1.020	0.099
129.700	-0.477	0.099
129.800	-1.894	0.099
129.900	-4.473	0.099
130.000	-8.918	0.099
130.100	0.313	0.099
130.200	-6.056	0.099
130.300	10.581	0.099
130.400	-6.597	0.099
130.500	-9.987	0.099
130.600	-8.439	0.099
130.700	-6.550	0.099
130.800	-8.766	0.099
130.900	2.640	0.099
131.000	-6.215	0.099
131.100	0.851	0.099
131.200	-3.152	0.099
131.300	-1.522	0.099
131.400	-0.842	0.099
131.500	-0.180	0.099
131.600	-4.049	0.099
131.700	-1.971	0.099
131.800	3.835	0.099
131.900	-5.931	0.099
132.000	-3.658	0.099
132.100	-0.410	0.099
132.200	-1.697	0.099
132.300	-10.650	0.099
132.400	-6.597	0.099
132.500	3.364	0.099
132.600	-0.720	0.099
132.700	2.628	0.099
132.800	-1.692	0.099
132.900	-2.095	0.099
133.000	-12.700	0.099
133.100	-4.890	0.099
133.200	-5.499	0.099
133.300	3.565	0.099
133.400	1.782	0.099
133.500	-3.741	0.099
133.600	-0.129	0.099
133.700	-5.131	0.099
133.800	-0.141	0.099
133.900	-4.573	0.099
134.000	-4.579	0.099
134.100	-0.035	0.099
134.200	-0.241	0.099
134.300	-3.141	0.099
134.400	-9.769	0.099
134.500	5.020	0.099
134.600	0.191	0.099
134.700	-11.136	0.099
134.800	-7.186	0.099
134.900	-5.005	0.099
135.000	0.491	0.099
135.100	-3.342	0.099
135.200	-6.198	0.099
135.300	-1.265	0.099
135.400	-2.159	0.099
135.500	-4.787	0.099
135.600	-7.828	0.099
135.700	-5.566	0.099
135.800	-2.568	0.099
135.900	-10.996	0.099
136.000	-10.647	0.099
136.100	-2.301	0.099
136.200	-0.276	0.099
136.300	3.848	0.099
136.400	-5.934	0.099
136.500	-3.118	0.099
136.600	1.385	0.099
136.700	-3.650	0.099
136.800	0.085	0.099
136.900	-0.096	0.099
137.000	-4.278	0.099
137.100	-4.433	0.099
137.200	-1.601	0.099
137.300	-1.300	0.099
137.400	-3.678	0.099
137.500	3.904	0.099
137.600	-5.681	0.099
137.700	-2.844	0.099
137.800	-6.535	0.099
137.900	-11.111	0.099
138.000	-0.578	0.099
138.100	-3.017	0.099
138.200	-11.561	0.099
138.300	1.501	0.099
138.400	-7.216	0.099
138.500	-6.981	0.099
138.600	3.056	0.099
138.700	-6.256	0.099
138.800	-9.015	0.099
138.900	-1.044	0.099
139.000	-5.307	0.099
139.100	-0.966	0.099
139.200	-2.170	0.099
139.300	-4.465	0.099
139.400	1.746	0.099
139.500	-13.681	0.099
139.600	-3.130	0.099
139.700	-1.263	0.099
139.800	-11.888	0.099
139.900	-6.930	0.099
140.000	-0.298	0.099
140.100	0.002	0.099
140.200	-3.473	0.099
140.300	-2.290	0.099
140.400	-17.394	0.099
140.500	-4.667	0.099
140.600	-1.257	0.099
140.700	-1.927	0.099
140.800	-13.450	0.099
140.900	-7.629	0.099
141.000	-2.930	0.099
141.100	1.071	0.099
141.200	-7.816	0.099
141.300	1.342	0.099
141.400	-3.412	0.099
141.500	-5.772	0.099
141.600	0.950	0.099
141.700	2.986	0.099
141.800	-14.635	0.099
141.900	-17.114	0.099
142.000	-5.507	0.099
142.100	-4.187	0.099
142.200	1.160	0.099
142.300	-11.328	0.099
142.400	-5.218	0.099
142.500	0.028	0.099
142.600	-7.336	0.099
142.700	-9.691	0.099
142.800	6.498	0.099
142.900	-5.807	0.099
143.000	-4.725	0.099
143.100	-3.979	0.099
143.200	-4.357	0.099
143.300	2.227	0.099
143.400	-8.398	0.099
143.500	-9.026	0.099
143.600	-9.842	0.099
143.700	-9.491	0.099
143.800	-3.657	0.099
143.900	-5.535	0.099
144.000	-7.522	0.099
144.100	-0.490	0.099
144.200	-10.219	0.099
144.300	-4.347	0.099
144.400	-8.055	0.099
144.500	-8.749	0.099
144.600	-3.848	0.099
144.700	-5.683	0.099
144.800	-8.027	0.099
144.900	-1.672	0.099
145.000	-7.661	0.099
145.100	-14.010	0.099
145.200	-3.102	0.099
145.300	-11.152	0.099
145.400	-1.554	0.099
145.500	-8.149	0.099
145.600	-5.610	0.099
145.700	1.781	0.099
145.800	-0.240	0.099
145.900	-10.693	0.099
146.000	-7.331	0.099
146.100	-9.860	0.100
146.200	-1.767	0.100
146.300	0.966	0.100
146.400	0.482	0.100
146.500	-6.714	0.100
146.600	-5.874	0.100
146.700	-6.857	0.100
146.800	-6.832	0.100
146.900	-0.548	0.100
147.000	-8.238	0.100
147.100	-7.697	0.100
147.200	-6.316	0.100
147.300	-8.899	0.100
147.400	-13.281	0.100
147.500	3.971	0.100
147.600	2.825	0.100
147.700	-12.197	0.100
147.800	-4.850	0.100
147.900	-1.191	0.100
148.000	-12.183	0.100
148.100	-3.802	0.100
148.200	8.390	0.100
148.300	4.094	0.100
148.400	-1.296	0.100
148.500	-14.849	0.100
148.600	-5.643	0.100
148.700	-5.240	0.100
148.800	-2.838	0.100
148.900	-8.150	0.100
149.000	-9.414	0.100
149.100	-12.314	0.100
149.200	-0.231	0.100
149.300	-3.840	0.100
149.400	-3.816	0.100
149.500	5.295	0.100
149.600	-7.232	0.100
149.700	-2.809	0.100
149.800	-4.116	0.100
149.900	-7.083	0.100
150.000	-7.689	0.100
150.100	-6.574	0.100
150.200	0.015	0.100
150.300	-6.281	0.100
150.400	-6.407	0.100
150.500	-9.587	0.100
150.600	-6.584	0.100
150.700	-4.782	0.100
150.800	-1.094	0.100
150.900	-8.706	0.100
151.000	-2.438	0.100
151.100	-6.933	0.100
151.200	-10.462	0.100
151.300	0.311	0.100
151.400	-9.934	0.100
151.500	0.293	0.100
151.600	-8.800	0.100
151.700	-9.234	0.100
151.800	-0.485	0.100
151.900	-10.909	0.100
152.000	-6.350	0.100
152.100	-6.294	0.100
152.200	-4.372	0.100
152.300	-5.679	0.100
152.400	-6.248	0.100
152.500	-16.215	0.100
152.600	-2.191	0.100
152.700	-3.376	0.100
152.800	-11.493	0.100
152.900	-9.126	0.100
153.000	-2.747	0.100
153.100	-7.404	0.100
153.200	-8.815	0.100
153.300	-5.700	0.100
153.400	-5.827	0.100
153.500	4.609	0.100
153.600	2.980	0.100
153.700	-12.418	0.100
153.800	-5.461	0.100
153.900	-2.925	0.100
154.000	1.171	0.100
154.100	-7.500	0.100
154.200	-4.591	0.100
154.300	-3.929	0.100
154.400	-13.281	0.100
154.500	-3.053	0.100
154.600	-5.424	0.100
154.700	-11.403	0.100
154.800	-3.803	0.100
154.900	-4.362	0.100
155.000	-4.194	0.100
155.100	-6.752	0.100
155.200	-4.906	0.100
155.300	7.402	0.100
155.400	-0.470	0.100
155.500	-5.008	0.100
155.600	-6.505	0.100
155.700	-6.872	0.100
155.800	-1.587	0.100
155.900	-6.303	0.100
156.000	-4.816	0.100
156.100	-2.701	0.100
156.200	-7.077	0.100
156.300	-8.416	0.100
156.400	-5.120	0.100
156.500	-9.322	0.100
156.600	-13.980	0.100
156.700	-4.906	0.100
156.800	-9.879	0.100
156.900	2.975	0.100
157.000	-11.478	0.100
157.100	-3.545	0.100
157.200	-7.798	0.100
157.300	-12.720	0.100
157.400	-6.998	0.100
157.500	-1.741	0.100
157.600	3.020	0.100
157.700	-3.920	0.100
157.800	-10.556	0.100
157.900	-2.853	0.100
158.000	-6.758	0.100
158.100	-11.332	0.100
158.200	-4.952	0.100
158.300	-2.114	0.100
158.400	-2.994	0.100
158.500	-3.828	0.100
158.600	0.942	0.100
158.700	-13.139	0.100
158.800	-0.634	0.100
158.900	-4.711	0.100
159.000	-10.895	0.100
159.100	-3.591	0.100
159.200	-11.063	0.100
159.300	1.231	0.100
159.400	1.715	0.100
159.500	-6.373	0.100
159.600	-2.072	0.100
159.700	-4.288	0.100
159.800	-3.140	0.100
159.900	-4.933	0.100
160.000	-4.563	0.100
160.100	-9.151	0.100
160.200	1.263	0.100
160.300	-1.939	0.100
160.400	-1.248	0.100
160.500	-13.006	0.100
160.600	0.088	0.100
160.700	-1.224	0.100
160.800	-4.665	0.100
160.900	-4.120	0.100
161.000	-14.514	0.100
161.100	-5.859	0.100
161.200	-3.932	0.100
161.300	-11.329	0.100
161.400	-2.657	0.100
161.500	-7.139	0.100
161.600	4.422	0.100
161.700	4.738	0.100
161.800	-0.124	0.100
161.900	-9.659	0.100
162.000	-9.216	0.100
162.100	-15.028	0.100
162.200	-8.301	0.100
162.300	-2.982	0.100
162.400	-13.505	0.100
162.500	-5.593	0.100
162.600	-3.297	0.100
162.700	-5.282	0.100
162.800	-4.745	0.100
162.900	-3.542	0.100
163.000	-4.145	0.100
163.100	-7.831	0.100
163.200	-10.017	0.100
163.300	-1.058	0.100
163.400	-0.845	0.100
163.500	-7.789	0.100
163.600	-4.513	0.100
163.700	-2.284	0.100
163.800	2.270	0.100
163.900	-3.653	0.100
164.000	-8.052	0.100
164.100	-3.550	0.100
164.200	-11.707	0.100
164.300	1.852	0.100
164.400	-10.153	0.100
164.500	-5.917	0.100
164.600	-2.673	0.100
164.700	-10.409	0.100
164.800	-1.293	0.100
164.900	-5.840	0.100
165.000	4.969	0.100
165.100	-8.777	0.100
165.200	-5.474	0.100
165.300	-6.960	0.100
165.400	-5.894	0.100
165.500	-3.264	0.100
165.600	-1.585	0.100
165.700	-13.438	0.100
165.800	-2.569	0.100
165.900	-4.397	0.100
166.000	-4.684	0.100
166.100	-10.910	0.100
166.200	-4.588	0.100
166.300	-7.808	0.100
166.400	-7.929	0.100
166.500	-2.428	0.100
166.600	-4.992	0.100
166.700	-16.236	0.100
166.800	3.824	0.100
166.900	-5.481	0.100
167.000	-7.221	0.100
167.100	-12.251	0.100
167.200	-5.119	0.100
167.300	0.716	0.100
167.400	-12.418	0.100
167.500	-10.111	0.100
167.600	-2.584	0.100
167.700	-11.968	0.100
167.800	-4.744	0.100
167.900	-1.941	0.100
168.000	-13.652	0.100
168.100	-1.996	0.100
168.200	0.668	0.100
168.300	-3.120	0.100
168.400	-9.452	0.100
168.500	-3.231	0.100
168.600	-11.319	0.100
168.700	1.717	0.100
168.800	-14.817	0.100
168.900	-7.481	0.100
169.000	-5.094	0.100
169.100	0.370	0.100
169.200	-12.906	0.100
169.300	-6.312	0.100
169.400	-6.934	0.100
169.500	-2.340	0.100
169.600	-4.714	0.100
169.700	-3.695	0.100
169.800	-8.434	0.100
169.900	-1.381	0.100
170.000	-13.291	0.100
170.100	-9.198	0.100
170.200	-6.485	0.100
170.300	-10.878	0.100
170.400	-1.761	0.100
170.500	-0.341	0.100
170.600	-6.263	0.100
170.700	-1.090	0.100
170.800	-8.555	0.100
170.900	-11.854	0.100
171.000	-6.142	0.100
171.100	2.421	0.100
171.200	-3.790	0.100
171.300	-12.552	0.100
171.400	-9.915	0.100
171.500	-13.332	0.100
171.600	-10.661	0.100
171.700	-1.418	0.100
171.800	-6.807	0.100
171.900	-1.583	0.100
172.000	-2.062	0.100
172.100	-9.784	0.100
172.200	-9.727	0.100
172.300	-3.809	0.100
172.400	-3.082	0.100
172.500	-2.284	0.100
172.600	-13.419	0.100
172.700	-2.444	0.100
172.800	-10.882	0.100
172.900	-2.826	0.100
173.000	-5.245	0.100
173.100	-8.132	0.100
173.200	-1.470	0.100
173.300	-8.589	0.100
173.400	-15.369	0.100
173.500	-0.039	0.100
173.600	-0.838	0.100
173.700	-0.681	0.100
173.800	-15.714	0.100
173.900	-1.660	0.100
174.000	-4.923	0.100
174.100	-16.173	0.100
174.200	0.072	0.100
174.300	-4.901	0.100
174.400	-1.730	0.100
174.500	-14.076	0.100
174.600	-6.274	0.100
174.700	-1.066	0.100
174.800	-11.549	0.100
174.900	2.015	0.100
175.000	-8.049	0.100
175.100	-3.745	0.100
175.200	-6.676	0.100
175.300	-2.148	0.100
175.400	-7.072	0.100
175.500	-14.878	0.100
175.600	-3.113	0.100
175.700	-5.966	0.100
175.800	-14.271	0.100
175.900	-1.838	0.100
176.000	-6.070	0.100
176.100	-9.042	0.100
176.200	-7.406	0.100
176.300	-14.570	0.100
176.400	-5.833	0.100
176.500	-0.105	0.100
176.600	-3.613	0.100
176.700	-6.364	0.100
176.800	-7.233	0.100
176.900	-1.453	0.100
177.000	-7.390	0.100
177.100	-7.291	0.100
177.200	-6.993	0.100
177.300	-7.721	0.100
177.400	-4.310	0.100
177.500	-2.487	0.100
177.600	-10.914	0.100
177.700	-3.672	0.100
177.800	-3.497	0.100
177.900	-8.093	0.100
178.000	-8.822	0.100
178.100	-2.503	0.100
178.200	-12.680	0.100
178.300	-5.483	0.100
178.400	-18.565	0.100
178.500	4.064	0.100
178.600	0.991	0.100
178.700	2.161	0.100
178.800	-2.321	0.100
178.900	-7.616	0.100
179.000	-2.664	0.100
179.100	-3.902	0.100
179.200	-9.637	0.100
179.300	-9.453	0.100
179.400	3.313	0.100
179.500	-1.838	0.100
179.600	-1.793	0.100
179.700	-12.712	0.100
179.800	1.432	0.100
179.900	-4.171	0.100
180.000	-9.120	0.100
180.100	1.140	0.100
180.200	-8.921	0.100
180.300	-4.677	0.100
180.400	-4.115	0.100
180.500	-17.958	0.100
180.600	-12.067	0.100
180.700	-2.523	0.100
180.800	-4.087	0.100
180.900	0.877	0.100
181.000	-11.075	0.100
181.100	-3.796	0.100
181.200	1.809	0.100
181.300	7.571	0.100
181.400	4.255	0.100
181.500	-8.596	0.100
181.600	-7.577	0.100
181.700	-10.591	0.100
181.800	5.871	0.100
181.900	6.274	0.100
182.000	3.404	0.100
182.100	4.522	0.100
182.200	5.875	0.100
182.300	11.205	0.100
182.400	3.768	0.100
182.500	-8.839	0.100
182.600	5.898	0.100
182.700	-8.216	0.100
182.800	5.648	0.100
182.900	2.071	0.100
183.000	-3.715	0.100
183.100	6.392	0.100
183.200	10.399	0.100
183.300	-2.032	0.100
183.400	4.400	0.100
183.500	2.799	0.100
183.600	-1.323	0.100
183.700	2.132	0.100
183.800	-0.079	0.100
183.900	-1.463	0.100
184.000	8.615	0.100
184.100	-5.058	0.100
184.200	14.896	0.100
184.300	15.510	0.100
184.400	0.131	0.100
184.500	4.469	0.100
184.600	-0.406	0.100
184.700	5.045	0.100
184.800	9.407	0.100
184.900	7.283	0.100
185.000	3.422	0.100
185.100	-1.915	0.100
185.200	-3.999	0.100
185.300	11.065	0.100
185.400	9.377	0.100
185.500	5.265	0.100
185.600	2.754	0.100
185.700	9.171	0.100
185.800	8.877	0.100
185.900	3.739	0.100
186.000	2.442	0.100
186.100	6.238	0.100
186.200	-1.827	0.100
186.300	8.324	0.100
186.400	3.734	0.100
186.500	5.985	0.100
186.600	12.396	0.100
186.700	12.577	0.100
186.800	9.350	0.100
186.900	1.309	0.100
187.000	11.906	0.100
187.100	6.870	0.100
187.200	2.671	0.100
187.300	-3.520	0.100
187.400	-8.218	0.100
187.500	8.673	0.100
187.600	13.186	0.100
187.700	6.280	0.100
187.800	5.107	0.100
187.900	2.648	0.100
188.000	5.537	0.100
188.100	8.496	0.100
188.200	0.854	0.100
188.300	5.676	0.100
188.400	0.253	0.100
188.500	5.381	0.100
188.600	-1.203	0.100
188.700	2.334	0.100
188.800	13.704	0.100
188.900	5.758	0.100
189.000	13.560	0.100
189.100	0.678	0.100
189.200	15.036	0.100
189.300	0.775	0.100
189.400	6.719	0.100
189.500	5.226	0.100
189.600	7.725	0.100
189.700	7.104	0.100
189.800	1.299	0.100
189.900	7.284	0.100
190.000	14.754	0.100
190.100	4.919	0.100
190.200	9.524	0.100
190.300	3.449	0.100
190.400	-1.089	0.100
190.500	5.582	0.100
190.600	3.085	0.100
190.700	4.293	0.100
190.800	8.422	0.100
190.900	-2.313	0.100
191.000	13.829	0.100
191.100	8.755	0.100
191.200	9.014	0.100
191.300	6.734	0.100
191.400	7.488	0.100
191.500	7.148	0.100
191.600	19.191	0.100
191.700	8.944	0.100
191.800	-6.491	0.100
191.900	7.951	0.100
192.000	10.055	0.100
192.100	9.994	0.100
192.200	6.733	0.100
192.300	4.956	0.100
192.400	13.384	0.100
192.500	13.566	0.100
192.600	6.422	0.100
192.700	11.373	0.100
192.800	7.045	0.100
192.900	16.482	0.100
193.000	-2.005	0.100
193.100	9.124	0.100
193.200	15.103	0.100
193.300	2.944	0.100
193.400	14.224	0.100
193.500	5.237	0.100
193.600	4.289	0.100
193.700	5.012	0.100
193.800	7.581	0.100
193.900	9.280	0.100
194.000	12.559	0.100
194.100	6.292	0.100
194.200	8.179	0.100
194.300	16.844	0.100
194.400	12.492	0.100
194.500	7.956	0.100
194.600	7.556	0.100
194.700	11.360	0.100
194.800	12.529	0.100
194.900	9.241	0.100
195.000	10.196	0.100
195.100	16.649	0.100
195.200	5.186	0.100
195.300	3.676	0.100
195.400	13.305	0.100
195.500	15.360	0.100
195.600	10.265	0.100
195.700	8.570	0.100
195.800	13.900	0.100
195.900	11.111	0.100
196.000	12.978	0.100
196.100	2.591	0.100
196.200	8.016	0.100
196.300	16.665	0.100
196.400	10.098	0.100
196.500	7.956	0.100
196.600	12.039	0.100
196.700	13.773	0.100
196.800	8.944	0.100
196.900	14.151	0.100
197.000	5.107	0.100
197.100	4.137	0.100
197.200	13.380	0.100
197.300	2.071	0.100
197.400	15.819	0.100
197.500	10.523	0.100
197.600	18.143	0.100
197.700	11.741	0.100
197.800	0.777	0.100
197.900	12.135	0.100
198.000	20.515	0.100
198.100	17.992	0.100
198.200	15.092	0.100
198.300	6.822	0.100
198.400	11.943	0.100
198.500	15.368	0.100
198.600	15.107	0.100
198.700	19.490	0.100
198.800	15.164	0.100
198.900	9.729	0.100
199.000	11.838	0.100
199.100	7.594	0.100
199.200	12.392	0.100
199.300	15.810	0.100
199.400	4.806	0.100
199.500	10.341	0.100
199.600	3.358	0.100
199.700	20.027	0.100
199.800	16.291	0.100
199.900	15.045	0.100
200.000	6.471	0.100
200.100	14.246	0.100
200.200	6.655	0.100
200.300	18.336	0.100
200.400	17.220	0.100
200.500	12.518	0.100
200.600	10.158	0.100
200.700	-0.159	0.100
200.800	11.206	0.100
200.900	10.190	0.100
201.000	6.748	0.100
201.100	5.077	0.100
201.200	13.367	0.100
201.300	13.941	0.100
201.400	19.380	0.100
201.500	19.336	0.100
201.600	13.972	0.100
201.700	11.487	0.100
201.800	8.910	0.100
201.900	6.927	0.100
202.000	5.588	0.100
202.100	20.737	0.100
202.200	14.055	0.100
202.300	19.861	0.100
202.400	24.360	0.100
202.500	19.347	0.100
202.600	12.608	0.100
202.700	7.411	0.100
202.800	8.198	0.100
202.900	13.339	0.100
203.000	9.912	0.100
203.100	20.162	0.100
203.200	16.076	0.100
203.300	15.338	0.100
203.400	17.231	0.100
203.500	10.704	0.100
203.600	15.022	0.100
203.700	14.607	0.100
203.800	13.118	0.100
203.900	19.034	0.100
204.000	17.460	0.100
204.100	19.994	0.100
204.200	24.840	0.100
204.300	12.142	0.100
204.400	20.847	0.100
204.500	12.448	0.100
204.600	11.069	0.100
204.700	15.853	0.100
204.800	16.229	0.100
204.900	4.929	0.100
205.000	9.659	0.100
205.100	16.435	0.100
205.200	11.469	0.100
205.300	12.597	0.100
205.400	15.366	0.100
205.500	13.423	0.100
205.600	10.916	0.100
205.700	18.082	0.100
205.800	16.196	0.100
205.900	20.381	0.100
206.000	10.622	0.100
206.100	10.781	0.100
206.200	19.369	0.100
206.300	17.707	0.100
206.400	12.936	0.100
206.500	19.917	0.100
206.600	17.489	0.100
206.700	13.841	0.100
206.800	17.724	0.100
206.900	18.247	0.100
207.000	14.474	0.100
207.100	13.331	0.100
207.200	17.280	0.100
207.300	10.929	0.100
207.400	12.838	0.100
207.500	12.718	0.100
207.600	15.592	0.100
207.700	24.031	0.100
207.800	17.332	0.100
207.900	14.021	0.100
208.000	24.038	0.100
208.100	12.219	0.100
208.200	20.218	0.100
208.300	18.791	0.100
208.400	18.523	0.100
208.500	18.309	0.100
208.600	4.159	0.100
208.700	8.060	0.100
208.800	16.643	0.100
208.900	21.405	0.100
209.000	13.051	0.100
209.100	14.078	0.100
209.200	25.865	0.100
209.300	20.793	0.100
209.400	9.073	0.100
209.500	7.056	0.100
209.600	20.145	0.100
209.700	10.878	0.100
209.800	23.938	0.100
209.900	14.695	0.100
210.000	12.664	0.100
210.100	26.487	0.100
210.200	15.101	0.100
210.300	18.220	0.100
210.400	20.031	0.100
210.500	19.301	0.100
210.600	18.148	0.100
210.700	12.831	0.100
210.800	22.812	0.100
210.900	28.032	0.100
211.000	15.788	0.100
211.100	15.347	0.100
211.200	19.210	0.100
211.300	22.807	0.100
211.400	16.880	0.100
211.500	17.181	0.100
211.600	15.226	0.100
211.700	17.627	0.100
211.800	22.005	0.100
211.900	26.943	0.100
212.000	14.546	0.100
212.100	18.823	0.100
212.200	8.285	0.100
212.300	20.550	0.100
212.400	10.474	0.100
212.500	9.901	0.100
212.600	25.078	0.100
212.700	20.386	0.100
212.800	15.042	0.100
212.900	22.423	0.100
213.000	18.685	0.100
213.100	12.646	0.100
213.200	18.486	0.100
213.300	16.047	0.100
213.400	8.232	0.100
213.500	20.810	0.100
213.600	21.425	0.100
213.700	22.664	0.100
213.800	9.580	0.100
213.900	20.026	0.100
214.000	25.026	0.100
214.100	11.290	0.100
214.200	7.087	0.100
214.300	27.686	0.100
214.400	26.561	0.100
214.500	19.509	0.100
214.600	12.603	0.100
214.700	11.154	0.100
214.800	22.511	0.100
214.900	20.961	0.100
215.000	16.749	0.100
215.100	16.331	0.100
215.200	19.483	0.100
215.300	17.256	0.100
215.400	14.622	0.100
215.500	26.428	0.100
215.600	25.926	0.100
215.700	20.856	0.100
215.800	13.454	0.100
215.900	9.680	0.100
216.000	19.051	0.100
216.100	19.032	0.100
216.200	26.112	0.100
216.300	24.446	0.100
216.400	19.031	0.100
216.500	17.032	0.100
216.600	21.028	0.100
216.700	24.573	0.100
216.800	17.286	0.100
216.900	13.189	0.100
217.000	20.250	0.100
217.100	13.807	0.100
217.200	26.945	0.100
217.300	23.549	0.100
217.400	19.700	0.100
217.500	14.879	0.100
217.600	11.994	0.100
217.700	21.836	0.100
217.800	23.401	0.100
217.900	29.453	0.100
218.000	23.256	0.100
218.100	17.418	0.100
218.200	23.645	0.100
218.300	19.510	0.100
218.400	20.491	0.100
218.500	23.862	0.100
218.600	25.500	0.100
218.700	24.063	0.100
218.800	25.708	0.100
218.900	24.117	0.100
219.000	15.292	0.100
219.100	16.771	0.100
219.200	23.468	0.100
219.300	30.058	0.100
219.400	24.265	0.100
219.500	18.989	0.100
219.600	17.184	0.100
219.700	21.852	0.100
219.800	18.384	0.100
219.900	19.817	0.100
220.000	17.937	0.100
220.100	28.881	0.100
220.200	14.907	0.100
220.300	22.263	0.100
220.400	16.114	0.100
220.500	22.396	0.100
220.600	11.351	0.100
220.700	18.011	0.100
220.800	24.340	0.100
220.900	22.069	0.100
221.000	17.128	0.100
221.100	23.533	0.100
221.200	19.397	0.100
221.300	16.409	0.100
221.400	23.957	0.100
221.500	20.586	0.100
221.600	18.099	0.100
221.700	13.841	0.100
221.800	24.034	0.100
221.900	24.096	0.100
222.000	33.841	0.100
222.100	24.058	0.100
222.200	18.533	0.100
222.300	27.305	0.100
222.400	21.715	0.100
222.500	21.427	0.100
222.600	23.004	0.100
222.700	16.240	0.100
222.800	21.190	0.100
222.900	17.824	0.100
223.000	19.564	0.100
223.100	17.065	0.100
223.200	27.345	0.100
223.300	25.946	0.100
223.400	13.187	0.100
223.500	20.474	0.100
223.600	33.094	0.100
223.700	31.667	0.100
223.800	29.752	0.100
223.900	11.078	0.100
224.000	22.978	0.100
224.100	16.853	0.100
224.200	22.562	0.100
224.300	25.232	0.100
224.400	24.076	0.100
224.500	25.357	0.100
224.600	25.985	0.100
224.700	24.103	0.100
224.800	28.415	0.100
224.900	17.251	0.100
225.000	16.756	0.100
225.100	33.856	0.100
225.200	25.931	0.100
225.300	18.812	0.100
225.400	18.291	0.100
225.500	20.694	0.100
225.600	21.452	0.100
225.700	17.839	0.100
225.800	21.130	0.100
225.900	26.462	0.100
226.000	31.936	0.100
226.100	26.585	0.100
226.200	22.124	0.100
226.300	22.757	0.100
226.400	22.797	0.100
226.500	26.630	0.100
226.600	23.754	0.100
226.700	27.084	0.100
226.800	27.083	0.100
226.900	18.675	0.100
227.000	26.115	0.100
227.100	18.376	0.100
227.200	20.351	0.100
227.300	23.226	0.100
227.400	25.220	0.100
227.500	16.529	0.100
227.600	25.512	0.100
227.700	27.016	0.100
227.800	26.553	0.100
227.900	5.405	0.100
228.000	28.960	0.100
228.100	27.759	0.100
228.200	24.448	0.100
228.300	27.735	0.100
228.400	28.377	0.100
228.500	13.060	0.100
228.600	24.676	0.100
228.700	23.539	0.100
228.800	23.174	0.100
228.900	30.455	0.100
229.000	26.744	0.100
229.100	25.552	0.100
229.200	18.422	0.100
229.300	28.081	0.100
229.400	19.065	0.100
229.500	25.329	0.100
229.600	24.192	0.100
229.700	28.175	0.100
229.800	12.126	0.100
229.900	24.170	0.100
230.000	22.030	0.100
230.100	21.858	0.100
230.200	25.795	0.100
230.300	24.230	0.100
230.400	21.739	0.100
230.500	26.077	0.100
230.600	24.815	0.100
230.700	21.549	0.100
230.800	27.213	0.100
230.900	14.951	0.100
231.000	35.250	0.100
231.100	30.800	0.100
231.200	26.676	0.100
231.300	18.592	0.100
231.400	26.683	0.100
231.500	21.804	0.100
231.600	23.532	0.100
231.700	16.136	0.100
231.800	15.511	0.100
231.900	36.488	0.100
232.000	34.932	0.100
232.100	28.719	0.100
232.200	23.722	0.100
232.300	22.337	0.100
232.400	20.617	0.100
232.500	25.906	0.100
232.600	24.534	0.100
232.700	22.491	0.100
232.800	28.204	0.100
232.900	27.481	0.100
233.000	23.541	0.100
233.100	23.670	0.100
233.200	26.991	0.100
233.300	25.926	0.100
233.400	25.517	0.100
233.500	25.010	0.100
233.600	25.017	0.100
233.700	19.991	0.100
233.800	27.475	0.100
233.900	31.450	0.100
234.000	21.972	0.100
234.100	19.262	0.100
234.200	21.401	0.100
234.300	24.189	0.100
234.400	30.496	0.100
234.500	17.320	0.100
234.600	20.747	0.100
234.700	27.378	0.100
234.800	21.679	0.100
234.900	28.063	0.100
235.000	31.103	0.100
235.100	24.417	0.100
235.200	28.206	0.100
235.300	22.513	0.100
235.400	30.545	0.100
235.500	33.788	0.100
235.600	13.528	0.100
235.700	26.579	0.100
235.800	23.199	0.100
235.900	23.320	0.100
236.000	22.015	0.100
236.100	24.420	0.100
236.200	29.691	0.100
236.300	27.558	0.100
236.400	24.177	0.100
236.500	29.937	0.100
236.600	14.389	0.100
236.700	24.880	0.100
236.800	26.418	0.100
236.900	28.878	0.100
237.000	31.067	0.100
237.100	26.543	0.100
237.200	11.293	0.100
237.300	15.214	0.100
237.400	26.261	0.100
237.500	25.476	0.100
237.600	28.919	0.100
237.700	26.051	0.100
237.800	21.969	0.100
237.900	28.418	0.100
238.000	34.676	0.100
238.100	26.111	0.100
238.200	23.812	0.100
238.300	21.836	0.100
238.400	20.409	0.100
238.500	26.017	0.100
238.600	20.123	0.100
238.700	29.028	0.100
238.800	26.532	0.100
238.900	28.289	0.100
239.000	21.087	0.100
239.100	28.055	0.100
239.200	25.374	0.100
239.300	27.269	0.100
239.400	22.032	0.100
239.500	25.300	0.100
239.600	32.152	0.100
239.700	29.417	0.100
239.800	29.076	0.100
239.900	27.786	0.100
240.000	30.381	0.100
240.100	34.790	0.100
240.200	25.472	0.100
240.300	26.399	0.100
240.400	28.515	0.100
240.500	24.042	0.100
240.600	25.677	0.100
240.700	31.704	0.100
240.800	20.368	0.100
240.900	26.988	0.100
241.000	27.527	0.100
241.100	22.182	0.100
241.200	18.687	0.100
241.300	20.402	0.100
241.400	22.378	0.100
241.500	29.638	0.100
241.600	14.238	0.100
241.700	14.584	0.100
241.800	20.828	0.100
241.900	21.495	0.100
242.000	16.387	0.100
242.100	15.664	0.100
242.200	12.698	0.100
242.300	12.004	0.100
242.400	14.038	0.100
242.500	24.877	0.100
242.600	17.557	0.100
242.700	5.166	0.100
242.800	17.668	0.100
242.900	23.088	0.100
243.000	23.624	0.100
243.100	14.141	0.100
243.200	13.897	0.100
243.300	18.796	0.100
243.400	10.211	0.100
243.500	8.400	0.100
243.600	13.693	0.100
243.700	13.008	0.100
243.800	19.150	0.100
243.900	18.073	0.100
244.000	15.267	0.100
244.100	13.669	0.100
244.200	8.777	0.100
244.300	19.874	0.100
244.400	14.587	0.100
244.500	10.944	0.100
244.600	12.882	0.100
244.700	11.935	0.100
244.800	12.558	0.100
244.900	21.070	0.100
245.000	16.284	0.100
245.100	11.257	0.100
245.200	17.739	0.100
245.300	18.428	0.100
245.400	12.119	0.100
245.500	11.665	0.100
245.600	14.071	0.100
245.700	9.052	0.100
245.800	5.007	0.100
245.900	12.030	0.100
246.000	15.838	0.100
246.100	15.015	0.100
246.200	13.681	0.100
246.300	2.018	0.100
246.400	13.779	0.100
246.500	20.685	0.100
246.600	8.004	0.100
246.700	15.034	0.100
246.800	4.562	0.100
246.900	10.275	0.100
247.000	14.888	0.100
247.100	18.875	0.100
247.200	8.506	0.100
247.300	16.843	0.100
247.400	9.219	0.100
247.500	7.621	0.100
247.600	16.485	0.100
247.700	14.909	0.100
247.800	6.391	0.100
247.900	18.610	0.100
248.000	9.426	0.100
248.100	15.740	0.100
248.200	10.320	0.100
248.300	12.628	0.100
248.400	21.886	0.100
248.500	14.666	0.100
248.600	11.117	0.100
248.700	15.691	0.100
248.800	14.623	0.100
248.900	11.046	0.100
249.000	4.398	0.100
249.100	5.120	0.100
249.200	7.584	0.100
249.300	28.604	0.100
249.400	8.831	0.100
249.500	5.306	0.100
249.600	8.417	0.100
249.700	22.227	0.100
249.800	9.472	0.100
249.900	14.740	0.100
250.000	10.345	0.100
250.100	16.510	0.100
250.200	1.437	0.100
250.300	16.398	0.100
250.400	13.221	0.100
250.500	14.322	0.100
250.600	12.535	0.100
250.700	13.974	0.100
250.800	12.234	0.100
250.900	12.761	0.100
251.000	1.232	0.100
251.100	10.905	0.100
251.200	7.698	0.100
251.300	17.246	0.100
251.400	19.620	0.100
251.500	9.438	0.100
251.600	5.759	0.100
251.700	17.790	0.100
251.800	13.921	0.100
251.900	8.898	0.100
252.000	8.918	0.100
252.100	13.525	0.100
252.200	10.144	0.100
252.300	6.920	0.100
252.400	10.545	0.100
252.500	-0.545	0.100
252.600	14.188	0.100
252.700	4.482	0.100
252.800	18.170	0.100
252.900	4.692	0.100
253.000	11.292	0.100
253.100	6.348	0.100
253.200	9.275	0.100
253.300	9.255	0.100
253.400	11.485	0.100
253.500	6.305	0.100
253.600	12.498	0.100
253.700	16.629	0.100
253.800	12.995	0.100
253.900	5.386	0.100
254.000	1.079	0.100
254.100	13.418	0.100
254.200	5.506	0.100
254.300	11.037	0.100
254.400	10.744	0.100
254.500	1.841	0.100
254.600	4.498	0.100
254.700	14.596	0.100
254.800	15.025	0.100
254.900	1.130	0.100
255.000	0.093	0.100
255.100	11.521	0.100
255.200	4.282	0.100
255.300	11.316	0.100
255.400	7.158	0.100
255.500	8.764	0.100
255.600	4.376	0.100
255.700	10.185	0.100
255.800	6.355	0.100
255.900	6.022	0.100
256.000	15.268	0.100
256.100	7.677	0.100
256.200	5.161	0.100
256.300	6.455	0.100
256.400	4.150	0.100
256.500	2.669	0.100
256.600	15.678	0.100
256.700	10.384	0.100
256.800	11.022	0.100
256.900	1.769	0.100
257.000	7.847	0.100
257.100	5.574	0.100
257.200	3.000	0.100
257.300	8.131	0.100
257.400	3.172	0.100
257.500	6.192	0.100
257.600	12.331	0.100
257.700	7.709	0.100
257.800	3.609	0.100
257.900	0.093	0.100
258.000	12.744	0.100
258.100	7.751	0.100
258.200	6.188	0.100
258.300	0.012	0.100
258.400	12.324	0.100
258.500	-0.477	0.100
258.600	2.866	0.100
258.700	10.572	0.100
258.800	2.359	0.100
258.900	0.902	0.100
259.000	3.186	0.100
259.100	10.265	0.100
259.200	9.804	0.100
259.300	10.121	0.100
259.400	13.338	0.100
259.500	3.103	0.100
259.600	3.516	0.100
259.700	1.311	0.100
259.800	8.687	0.100
259.900	13.440	0.100
260.000	0.965	0.100
260.100	12.379	0.100
260.200	6.107	0.100
260.300	9.122	0.100
260.400	3.043	0.100
260.500	9.491	0.100
260.600	0.008	0.100
260.700	8.193	0.100
260.800	10.451	0.100
260.900	6.459	0.100
261.000	1.298	0.100
261.100	11.290	0.100
261.200	0.110	0.100
261.300	2.608	0.100
261.400	4.182	0.100
261.500	6.269	0.100
261.600	-6.271	0.100
261.700	0.925	0.100
261.800	5.199	0.100
261.900	-0.371	0.100
262.000	-1.574	0.100
262.100	10.675	0.100
262.200	8.722	0.100
262.300	4.410	0.100
262.400	6.223	0.100
262.500	4.349	0.100
262.600	7.719	0.100
262.700	9.445	0.100
262.800	5.042	0.100
262.900	10.343	0.100
263.000	10.796	0.100
263.100	9.902	0.100
263.200	5.889	0.100
263.300	2.184	0.100
263.400	-1.699	0.100
263.500	-5.489	0.100
263.600	0.203	0.100
263.700	11.497	0.100
263.800	6.787	0.100
263.900	1.816	0.100
264.000	6.227	0.100
264.100	1.731	0.100
264.200	0.286	0.100
264.300	2.446	0.100
264.400	0.646	0.100
264.500	-0.857	0.100
264.600	7.165	0.100
264.700	-3.339	0.100
264.800	4.327	0.100
264.900	3.424	0.100
265.000	0.990	0.100
265.100	2.995	0.100
265.200	6.381	0.100
265.300	0.513	0.100
265.400	-3.394	0.100
265.500	9.034	0.100
265.600	-5.030	0.100
265.700	-2.132	0.100
265.800	7.841	0.100
265.900	0.348	0.100
266.000	3.253	0.100
266.100	2.328	0.100
266.200	2.264	0.100
266.300	5.446	0.100
266.400	-4.109	0.100
266.500	3.067	0.100
266.600	2.005	0.100
266.700	5.697	0.100
266.800	11.408	0.100
266.900	2.658	0.100
267.000	-0.284	0.100
267.100	-2.466	0.100
267.200	4.605	0.100
267.300	1.909	0.100
267.400	3.852	0.100
267.500	3.771	0.100
267.600	0.702	0.100
267.700	6.604	0.100
267.800	10.543	0.100
267.900	-0.368	0.100
268.000	-8.278	0.100
268.100	2.229	0.100
268.200	7.581	0.100
268.300	-4.344	0.100
268.400	5.369	0.100
268.500	-0.824	0.100
268.600	0.676	0.100
268.700	-2.621	0.100
268.800	-2.584	0.100
268.900	-0.454	0.100
269.000	-6.114	0.100
269.100	-4.783	0.100
269.200	5.171	0.100
269.300	4.189	0.100
269.400	5.168	0.100
269.500	2.896	0.100
269.600	0.995	0.100
269.700	0.120	0.100
269.800	-6.688	0.100
269.900	2.123	0.100
270.000	9.618	0.100
270.100	4.588	0.100
270.200	-0.381	0.100
270.300	5.004	0.100
270.400	5.916	0.100
270.500	-6.909	0.100
270.600	-1.117	0.100
270.700	1.888	0.100
270.800	-0.026	0.100
270.900	5.836	0.100
271.000	-0.052	0.100
271.100	5.083	0.100
271.200	1.969	0.100
271.300	-4.854	0.100
271.400	2.836	0.100
271.500	2.792	0.100
271.600	-3.610	0.100
271.700	-5.958	0.100
271.800	-3.044	0.100
271.900	-2.618	0.100
272.000	5.805	0.100
272.100	-2.096	0.100
272.200	-5.575	0.100
272.300	-0.075	0.100
272.400	2.167	0.100
272.500	-5.430	0.100
272.600	0.354	0.100
272.700	-2.085	0.100
272.800	-3.245	0.100
272.900	4.723	0.100
273.000	-0.624	0.100
273.100	2.044	0.100
273.200	-0.382	0.100
273.300	-6.711	0.100
273.400	3.536	0.100
273.500	-1.948	0.100
273.600	3.983	0.100
273.700	-1.369	0.100
273.800	-4.556	0.100
273.900	-6.816	0.100
274.000	-5.230	0.100
274.100	2.532	0.100
274.200	-4.917	0.100
274.300	-8.827	0.100
274.400	1.958	0.100
274.500	-7.217	0.100
274.600	5.068	0.100
274.700	0.364	0.100
274.800	-3.044	0.100
274.900	0.366	0.100
275.000	-1.189	0.100
275.100	-1.022	0.100
275.200	-6.843	0.100
275.300	1.004	0.100
275.400	-4.457	0.100
275.500	-4.668	0.100
275.600	-8.688	0.100
275.700	0.553	0.100
275.800	-1.952	0.100
275.900	-0.550	0.100
276.000	5.375	0.100
276.100	-2.061	0.100
276.200	-9.262	0.100
276.300	2.073	0.100
276.400	-7.636	0.100
276.500	-9.106	0.100
276.600	-1.914	0.100
276.700	-1.932	0.100
276.800	0.120	0.100
276.900	1.739	0.100
277.000	-2.402	0.100
277.100	-0.758	0.100
277.200	-1.736	0.100
277.300	0.659	0.100
277.400	-5.980	0.100
277.500	-2.728	0.100
277.600	0.524	0.100
277.700	1.625	0.100
277.800	-10.169	0.100
277.900	-3.044	0.100
278.000	-8.802	0.100
278.100	2.734	0.100
278.200	-0.867	0.100
278.300	-3.393	0.100
278.400	-13.000	0.100
278.500	-2.430	0.100
278.600	3.220	0.100
278.700	-0.541	0.100
278.800	2.598	0.100
278.900	5.676	0.100
279.000	-13.061	0.100
279.100	0.972	0.100
279.200	-2.986	0.100
279.300	-1.079	0.100
279.400	-3.768	0.100
279.500	-2.347	0.100
279.600	-0.889	0.100
279.700	0.322	0.100
279.800	-2.552	0.100
279.900	-4.104	0.100
280.000	0.259	0.100
280.100	-2.104	0.100
280.200	-5.421	0.100
280.300	-4.745	0.100
280.400	1.318	0.100
280.500	4.391	0.100
280.600	-2.790	0.100
280.700	-3.240	0.100
280.800	-7.137	0.100
280.900	-4.538	0.100
281.000	-0.629	0.100
281.100	2.288	0.100
281.200	-10.551	0.100
281.300	0.005	0.100
281.400	-0.156	0.100
281.500	-2.314	0.100
281.600	-6.857	0.100
281.700	1.659	0.100
281.800	-5.840	0.100
281.900	-3.785	0.100
282.000	8.248	0.100
282.100	-5.569	0.100
282.200	-7.640	0.100
282.300	3.225	0.100
282.400	-3.646	0.100
282.500	-2.341	0.100
282.600	2.502	0.100
282.700	-1.969	0.100
282.800	-8.429	0.100
282.900	4.495	0.100
283.000	-4.882	0.100
283.100	-4.588	0.100
283.200	-1.549	0.100
283.300	-3.335	0.100
283.400	0.701	0.100
283.500	-6.104	0.100
283.600	-11.895	0.100
283.700	-6.439	0.100
283.800	-10.788	0.100
283.900	1.763	0.100
284.000	1.480	0.100
284.100	-3.112	0.100
284.200	-8.875	0.100
284.300	10.495	0.100
284.400	-3.257	0.100
284.500	-10.177	0.100
284.600	-4.381	0.100
284.700	1.398	0.100
284.800	-6.399	0.100
284.900	-4.484	0.100
285.000	-2.144	0.100
285.100	-5.203	0.100
285.200	-0.008	0.100
285.300	-8.840	0.100
285.400	-6.820	0.100
285.500	-4.545	0.100
285.600	2.750	0.100
285.700	2.431	0.100
285.800	-4.479	0.100
285.900	-11.221	0.100
286.000	-7.080	0.100
286.100	1.342	0.100
286.200	-8.864	0.100
286.300	-3.843	0.100
286.400	-8.487	0.100
286.500	-5.688	0.100
286.600	-9.458	0.100
286.700	-6.007	0.100
286.800	-3.140	0.100
286.900	-9.206	0.100
287.000	-5.705	0.100
287.100	3.243	0.100
287.200	-2.385	0.100
287.300	-3.461	0.100
287.400	-10.927	0.100
287.500	-6.270	0.100
287.600	2.393	0.100
287.700	-7.258	0.100
287.800	-5.788	0.100
287.900	-3.364	0.100
288.000	-9.085	0.100
288.100	-3.342	0.100
288.200	-5.634	0.100
288.300	0.248	0.100
288.400	-0.678	0.100
288.500	-6.827	0.100
288.600	1.985	0.100
288.700	-1.282	0.100
288.800	-3.532	0.100
288.900	-8.999	0.100
289.000	-6.789	0.100
289.100	-4.918	0.100
289.200	-3.671	0.100
289.300	-3.452	0.100
289.400	-6.467	0.100
289.500	-7.534	0.100
289.600	-6.542	0.100
289.700	-7.572	0.100
289.800	-7.276	0.100
289.900	-5.582	0.100
290.000	-6.136	0.100
290.100	4.616	0.100
290.200	-9.359	0.100
290.300	-8.787	0.100
290.400	-1.380	0.100
290.500	-2.338	0.100
290.600	-4.956	0.100
290.700	3.999	0.100
290.800	-2.610	0.100
290.900	-11.922	0.100
291.000	-1.658	0.100
291.100	-6.078	0.100
291.200	-10.525	0.100
291.300	-3.167	0.100
291.400	-4.144	0.100
291.500	-7.530	0.100
291.600	-8.718	0.100
291.700	-14.223	0.100
291.800	-4.608	0.100
291.900	-9.998	0.100
292.000	-1.202	0.100
292.100	-4.050	0.100
292.200	-9.988	0.100
292.300	-3.559	0.100
292.400	-11.981	0.100
292.500	-4.482	0.100
292.600	-7.094	0.100
292.700	-13.109	0.100
292.800	-5.271	0.100
292.900	4.329	0.100
293.000	-0.344	0.100
293.100	-1.038	0.100
293.200	-1.214	0.100
293.300	-5.517	0.100
293.400	3.109	0.100
293.500	-14.809	0.100
293.600	-11.531	0.100
293.700	-4.324	0.100
293.800	-7.477	0.100
293.900	-2.106	0.100
294.000	-5.922	0.100
294.100	-5.477	0.100
294.200	-7.148	0.100
294.300	-7.911	0.100
294.400	1.453	0.100
294.500	-5.371	0.100
294.600	-1.677	0.100
294.700	-9.430	0.100
294.800	-14.168	0.100
294.900	0.474	0.100
295.000	-5.256	0.100
295.100	-7.482	0.100
295.200	-0.103	0.100
295.300	-5.484	0.100
295.400	-1.490	0.100
295.500	-8.908	0.100
295.600	-6.401	0.100
295.700	-14.009	0.100
295.800	-11.716	0.100
295.900	-2.956	0.100
296.000	-15.745	0.100
296.100	0.153	0.100
296.200	-5.686	0.100
296.300	-2.188	0.100
296.400	-12.814	0.100
296.500	-8.127	0.100
296.600	-5.152	0.100
296.700	-19.886	0.100
296.800	-0.306	0.100
296.900	-5.189	0.100
297.000	-8.352	0.100
297.100	-7.480	0.100
297.200	-5.180	0.100
297.300	-6.174	0.100
297.400	-10.816	0.100
297.500	-3.027	0.100
297.600	1.347	0.100
297.700	-4.113	0.100
297.800	-12.733	0.100
297.900	-5.662	0.100
298.000	-7.955	0.100
298.100	-13.488	0.100
298.200	-8.285	0.100
298.300	-10.309	0.100
298.400	-9.050	0.100
298.500	-13.152	0.100
298.600	-4.071	0.100
298.700	-7.009	0.100
298.800	-13.026	0.100
298.900	1.815	0.100
299.000	-8.443	0.100
299.100	-2.913	0.100
299.200	-8.208	0.100
299.300	-6.936	0.100
299.400	-3.147	0.100
299.500	-0.736	0.100
299.600	-8.590	0.100
299.700	0.039	0.100
299.800	-4.226	0.100
299.900	-6.866	0.100
300.000	-9.900	0.100
300.100	-7.370	0.100
300.200	-5.018	0.100
300.300	-13.708	0.100
300.400	-7.916	0.100
300.500	-11.503	0.100
300.600	-5.063	0.100
300.700	-4.868	0.100
300.800	-8.317	0.100
300.900	-2.090	0.100
301.000	-8.031	0.100
301.100	-10.976	0.100
301.200	-4.033	0.100
301.300	-11.223	0.100
301.400	3.026	0.100
301.500	-9.744	0.100
301.600	-11.501	0.100
301.700	-8.064	0.100
301.800	-4.922	0.100
301.900	-6.698	0.100
302.000	-7.285	0.100
302.100	-10.781	0.100
302.200	-12.203	0.100
302.300	-6.021	0.100
302.400	-10.976	0.100
302.500	-5.216	0.100
302.600	-7.109	0.100
302.700	-5.611	0.100
302.800	-8.862	0.100
302.900	-20.320	0.100
303.000	-10.906	0.100
303.100	-2.332	0.100
303.200	-7.677	0.100
303.300	-5.712	0.100
303.400	3.739	0.100
303.500	-8.467	0.100
303.600	-0.584	0.100
303.700	-8.925	0.100
303.800	-8.025	0.100
303.900	-9.654	0.100
304.000	1.164	0.100
304.100	-5.182	0.100
304.200	-5.004	0.100
304.300	-4.902	0.100
304.400	-13.100	0.100
304.500	-12.467	0.100
304.600	-9.176	0.100
304.700	-11.757	0.100
304.800	1.857	0.100
304.900	-6.240	0.100
305.000	5.637	0.100
305.100	-10.777	0.100
305.200	-6.606	0.100
305.300	0.334	0.100
305.400	-11.490	0.100
305.500	-12.817	0.100
305.600	-14.005	0.100
305.700	-9.145	0.100
305.800	-4.988	0.100
305.900	-2.938	0.100
306.000	-2.362	0.100
306.100	-5.446	0.100
306.200	2.591	0.100
306.300	-11.083	0.100
306.400	-17.513	0.100
306.500	-8.977	0.100
306.600	-4.003	0.100
306.700	-10.848	0.100
306.800	-4.806	0.100
306.900	-9.997	0.100
307.000	-6.746	0.100
307.100	-14.352	0.100
307.200	-3.394	0.100
307.300	-1.170	0.100
307.400	-14.958	0.100
307.500	-11.710	0.100
307.600	-5.702	0.100
307.700	-9.582	0.100
307.800	0.766	0.100
307.900	-1.217	0.100
308.000	-12.501	0.100
308.100	-6.998	0.100
308.200	-11.331	0.100
308.300	-9.835	0.100
308.400	-8.508	0.100
308.500	-3.625	0.100
308.600	-4.574	0.100
308.700	-15.563	0.100
308.800	-9.245	0.100
308.900	-0.928	0.100
309.000	-9.914	0.100
309.100	0.268	0.100
309.200	-12.790	0.100
309.300	-14.726	0.100
309.400	-4.441	0.100
309.500	-11.326	0.100
309.600	-6.881	0.100
309.700	-8.583	0.100
309.800	-4.090	0.100
309.900	-19.245	0.100
310.000	0.073	0.100
310.100	4.917	0.100
310.200	-14.168	0.100
310.300	-5.060	0.100
310.400	-10.014	0.100
310.500	-9.203	0.100
310.600	-11.996	0.100
310.700	-5.041	0.100
310.800	-8.064	0.100
310.900	-10.294	0.100
311.000	-8.016	0.100
311.100	2.146	0.100
311.200	-3.418	0.100
311.300	-9.780	0.100
311.400	-5.482	0.100
311.500	-1.379	0.100
311.600	-4.155	0.100
311.700	-10.147	0.100
311.800	-10.452	0.100
311.900	-4.855	0.100
312.000	-6.442	0.100
312.100	-8.905	0.100
312.200	-6.178	0.100
312.300	-11.701	0.100
312.400	-7.345	0.100
312.500	-12.592	0.100
312.600	-5.621	0.100
312.700	-2.566	0.100
312.800	-16.485	0.100
312.900	-0.213	0.100
313.000	-8.340	0.100
313.100	-9.210	0.100
313.200	-11.513	0.100
313.300	-6.877	0.100
313.400	-6.979	0.100
313.500	-9.067	0.100
313.600	-5.202	0.100
313.700	-3.144	0.100
313.800	-0.478	0.100
313.900	-8.457	0.100
314.000	-8.973	0.100
314.100	-14.093	0.100
314.200	-4.556	0.100
314.300	-12.475	0.100
314.400	-13.675	0.100
314.500	-10.318	0.100
314.600	-10.780	0.100
314.700	-0.933	0.100
314.800	-3.202	0.100
314.900	-1.390	0.100
315.000	-1.763	0.100
315.100	-8.083	0.100
315.200	-1.849	0.100
315.300	-12.975	0.100
315.400	-13.511	0.100
315.500	-2.724	0.100
315.600	-10.495	0.100
315.700	-4.232	0.100
315.800	-10.234	0.100
315.900	-5.717	0.100
316.000	-3.929	0.100
316.100	-9.669	0.100
316.200	-8.816	0.100
316.300	-11.218	0.100
316.400	-3.645	0.100
316.500	-1.493	0.100
316.600	-6.661	0.100
316.700	-18.520	0.100
316.800	-5.211	0.100
316.900	-4.062	0.100
317.000	-6.786	0.100
317.100	-7.203	0.100
317.200	-10.337	0.100
317.300	-6.120	0.100
317.400	-10.280	0.100
317.500	-9.047	0.100
317.600	-17.810	0.100
317.700	-8.599	0.100
317.800	-2.429	0.100
317.900	-22.171	0.100
318.000	-5.647	0.100
318.100	-2.954	0.100
318.200	-9.007	0.100
318.300	-9.135	0.100
318.400	-12.286	0.100
318.500	-1.955	0.100
318.600	-3.371	0.100
318.700	-3.379	0.100
318.800	-6.062	0.100
318.900	-12.010	0.100
319.000	-8.486	0.100
319.100	-7.791	0.100
319.200	-4.725	0.100
319.300	-12.611	0.100
319.400	-20.538	0.100
319.500	-14.916	0.100
319.600	-11.656	0.100
319.700	1.420	0.100
319.800	1.121	0.100
319.900	-17.698	0.100
320.000	-4.952	0.100
320.100	-11.392	0.100
320.200	-6.503	0.100
320.300	-9.021	0.100
320.400	-8.353	0.100
320.500	-1.319	0.100
320.600	-7.964	0.100
320.700	-3.641	0.100
320.800	-12.954	0.100
320.900	-11.923	0.100
321.000	-10.920	0.100
321.100	-8.627	0.100
321.200	-14.750	0.100
321.300	-8.839	0.100
321.400	-8.110	0.100
321.500	-9.183	0.100
321.600	-14.561	0.100
321.700	-11.844	0.100
321.800	0.628	0.100
321.900	-9.371	0.100
322.000	-2.848	0.100
322.100	-1.489	0.100
322.200	-12.930	0.100
322.300	-9.541	0.100
322.400	-11.142	0.100
322.500	-9.404	0.100
322.600	-17.928	0.100
322.700	-11.863	0.100
322.800	-7.030	0.100
322.900	-7.482	0.100
323.000	-10.157	0.100
323.100	-8.257	0.100
323.200	-9.345	0.100
323.300	-10.854	0.100
323.400	-7.857	0.100
323.500	-4.989	0.100
323.600	-10.797	0.100
323.700	-10.115	0.100
323.800	-10.117	0.100
323.900	-9.506	0.100
324.000	1.025	0.100
324.100	-8.931	0.100
324.200	-12.962	0.100
324.300	-11.973	0.100
324.400	-8.604	0.100
324.500	-0.982	0.100
324.600	-15.278	0.100
324.700	-9.947	0.100
324.800	-3.307	0.100
324.900	-9.121	0.100
325.000	-11.938	0.100
325.100	-10.045	0.100
325.200	-7.914	0.100
325.300	-9.591	0.100
325.400	-0.817	0.100
325.500	-4.254	0.100
325.600	-18.264	0.100
325.700	-14.933	0.100
325.800	-6.390	0.100
325.900	-4.448	0.100
326.000	-13.578	0.100
326.100	-3.809	0.100
326.200	-3.685	0.100
326.300	-18.608	0.100
326.400	-8.701	0.100
326.500	-7.282	0.100
326.600	-4.555	0.100
326.700	-11.504	0.100
326.800	-4.755	0.100
326.900	-19.602	0.100
327.000	-3.281	0.100
327.100	-7.557	0.100
327.200	-9.681	0.100
327.300	-7.944	0.100
327.400	-5.126	0.100
327.500	-10.674	0.100
327.600	-4.305	0.100
327.700	-6.836	0.100
327.800	-9.287	0.100
327.900	-9.949	0.100
328.000	-7.346	0.100
328.100	-7.920	0.100
328.200	-17.387	0.100
328.300	-7.908	0.100
328.400	-8.060	0.100
328.500	-6.881	0.100
328.600	-6.287	0.100
328.700	-7.847	0.100
328.800	-6.088	0.100
328.900	-12.334	0.100
329.000	-2.871	0.100
329.100	-6.982	0.100
329.200	-13.884	0.100
329.300	-3.810	0.100
329.400	-13.092	0.100
329.500	-6.115	0.100
329.600	-13.289	0.100
329.700	-7.435	0.100
329.800	-10.551	0.100
329.900	-16.339	0.100
330.000	-6.666	0.100
330.100	-9.196	0.100
330.200	-10.492	0.100
330.300	-9.797	0.100
330.400	-14.340	0.100
330.500	-13.588	0.100
330.600	-10.396	0.100
330.700	-7.124	0.100
330.800	-8.145	0.100
330.900	-5.742	0.100
331.000	2.075	0.100
331.100	0.163	0.100
331.200	-2.634	0.100
331.300	-10.520	0.100
331.400	-2.499	0.100
331.500	-5.791	0.100
331.600	1.295	0.100
331.700	-1.462	0.100
331.800	-5.069	0.100
331.900	3.425	0.100
332.000	-0.684	0.100
332.100	6.206	0.100
332.200	0.426	0.100
332.300	7.206	0.100
332.400	-4.187	0.100
332.500	-0.999	0.100
332.600	0.259	0.100
332.700	-1.866	0.100
332.800	-3.155	0.100
332.900	-1.572	0.100
333.000	5.481	0.100
333.100	-0.174	0.100
333.200	3.287	0.100
333.300	3.659	0.100
333.400	1.084	0.100
333.500	-3.857	0.100
333.600	6.184	0.100
333.700	2.351	0.100
333.800	0.501	0.100
333.900	-0.748	0.100
334.000	8.558	0.100
334.100	0.617	0.100
334.200	2.900	0.100
334.300	3.235	0.100
334.400	5.347	0.100
334.500	6.692	0.100
334.600	-8.828	0.100
334.700	-0.163	0.100
334.800	-3.142	0.100
334.900	-0.673	0.100
335.000	13.122	0.100
335.100	1.438	0.100
335.200	8.918	0.100
335.300	2.876	0.100
335.400	-7.640	0.100
335.500	12.222	0.100
335.600	0.622	0.100
335.700	4.713	0.100
335.800	0.027	0.100
335.900	-3.492	0.100
336.000	1.234	0.100
336.100	6.206	0.100
336.200	2.938	0.100
336.300	5.744	0.100
336.400	10.068	0.100
336.500	5.021	0.100
336.600	-4.923	0.100
336.700	3.617	0.100
336.800	-2.216	0.100
336.900	7.772	0.100
337.000	-5.994	0.100
337.100	7.838	0.100
337.200	-3.074	0.100
337.300	7.833	0.100
337.400	-9.410	0.100
337.500	2.305	0.100
337.600	2.214	0.100
337.700	2.305	0.100
337.800	6.618	0.100
337.900	1.489	0.100
338.000	5.160	0.100
338.100	6.035	0.100
338.200	7.328	0.100
338.300	7.901	0.100
338.400	2.038	0.100
338.500	9.753	0.100
338.600	-3.646	0.100
338.700	-1.223	0.100
338.800	-0.618	0.100
338.900	7.298	0.100
339.000	12.782	0.100
339.100	-1.564	0.100
339.200	6.491	0.100
339.300	5.917	0.100
339.400	2.310	0.100
339.500	4.068	0.100
339.600	1.338	0.100
339.700	4.946	0.100
339.800	8.907	0.100
339.900	0.995	0.100
340.000	8.843	0.100
340.100	6.788	0.100
340.200	7.739	0.100
340.300	1.697	0.100
340.400	0.165	0.100
340.500	8.688	0.100
340.600	0.462	0.100
340.700	-4.859	0.100
340.800	5.597	0.100
340.900	9.271	0.100
341.000	7.384	0.100
341.100	8.536	0.100
341.200	3.797	0.100
341.300	8.070	0.100
341.400	3.779	0.100
341.500	8.418	0.100
341.600	7.173	0.100
341.700	5.263	0.100
341.800	2.205	0.100
341.900	2.620	0.100
342.000	10.230	0.100
342.100	9.996	0.100
342.200	6.045	0.100
342.300	-1.608	0.100
342.400	10.116	0.100
342.500	13.970	0.100
342.600	5.572	0.100
342.700	7.673	0.100
342.800	6.080	0.100
342.900	7.047	0.100
343.000	9.869	0.100
343.100	6.028	0.100
343.200	0.778	0.100
343.300	9.723	0.100
343.400	9.791	0.100
343.500	-4.144	0.100
343.600	8.735	0.100
343.700	5.171	0.100
343.800	5.976	0.100
343.900	6.368	0.100
344.000	5.522	0.100
344.100	2.805	0.100
344.200	15.756	0.100
344.300	5.733	0.100
344.400	-0.183	0.100
344.500	10.932	0.100
344.600	10.653	0.100
344.700	14.198	0.100
344.800	9.456	0.100
344.900	-0.102	0.100
345.000	6.145	0.100
345.100	3.575	0.100
345.200	12.929	0.100
345.300	10.393	0.100
345.400	7.313	0.100
345.500	12.517	0.100
345.600	4.193	0.100
345.700	6.399	0.100
345.800	10.526	0.100
345.900	7.639	0.100
346.000	5.227	0.100
346.100	6.838	0.100
346.200	9.801	0.100
346.300	12.291	0.100
346.400	1.845	0.100
346.500	14.493	0.100
346.600	10.045	0.100
346.700	3.687	0.100
346.800	3.881	0.100
346.900	15.440	0.100
347.000	12.026	0.100
347.100	7.968	0.100
347.200	3.568	0.100
347.300	4.093	0.100
347.400	15.240	0.100
347.500	14.200	0.100
347.600	11.840	0.100
347.700	13.211	0.100
347.800	1.072	0.100
347.900	3.083	0.100
348.000	4.658	0.100
348.100	13.729	0.100
348.200	9.121	0.100
348.300	12.583	0.100
348.400	10.070	0.100
348.500	10.815	0.100
348.600	11.157	0.100
348.700	8.770	0.100
348.800	12.332	0.100
348.900	12.302	0.100
349.000	12.121	0.100
349.100	10.882	0.100
349.200	8.206	0.100
349.300	3.738	0.100
349.400	8.022	0.100
349.500	4.765	0.100
349.600	20.598	0.100
349.700	13.148	0.100
349.800	13.235	0.100
349.900	14.752	0.100
350.000	9.753	0.100
350.100	2.578	0.100
350.200	15.214	0.100
350.300	13.225	0.100
350.400	13.229	0.100
350.500	11.804	0.100
350.600	9.766	0.100
350.700	8.234	0.100
350.800	12.727	0.100
350.900	7.971	0.100
351.000	15.836	0.100
351.100	9.364	0.100
351.200	7.790	0.100
351.300	14.410	0.100
351.400	15.743	0.100
351.500	15.836	0.100
351.600	13.308	0.100
351.700	11.594	0.100
351.800	16.869	0.100
351.900	16.900	0.100
352.000	17.026	0.100
352.100	11.407	0.100
352.200	6.296	0.100
352.300	15.873	0.100
352.400	8.263	0.100
352.500	11.390	0.100
352.600	6.946	0.100
352.700	10.431	0.100
352.800	11.872	0.100
352.900	6.379	0.100
353.000	12.735	0.100
353.100	19.946	0.100
353.200	4.713	0.100
353.300	15.130	0.100
353.400	9.101	0.100
353.500	14.837	0.100
353.600	9.286	0.100
353.700	12.610	0.100
353.800	6.106	0.100
353.900	18.364	0.100
354.000	10.268	0.100
354.100	8.522	0.100
354.200	24.735	0.100
354.300	19.711	0.100
354.400	18.320	0.100
354.500	17.754	0.100
354.600	12.743	0.100
354.700	6.218	0.100
354.800	16.180	0.100
354.900	10.921	0.100
355.000	21.277	0.100
355.100	9.535	0.100
355.200	11.990	0.100
355.300	19.249	0.100
355.400	15.251	0.100
355.500	16.391	0.100
355.600	9.445	0.100
355.700	22.835	0.100
355.800	15.637	0.100
355.900	21.083	0.100
356.000	6.947	0.100
356.100	10.835	0.100
356.200	7.443	0.100
356.300	22.393	0.100
356.400	9.733	0.100
356.500	15.413	0.100
356.600	16.008	0.100
356.700	13.877	0.100
356.800	9.162	0.100
356.900	17.933	0.100
357.000	16.955	0.100
357.100	16.191	0.100
357.200	13.860	0.100
357.300	13.475	0.100
357.400	18.345	0.100
357.500	13.127	0.100
357.600	24.543	0.100
357.700	14.427	0.100
357.800	15.678	0.100
357.900	19.666	0.100
358.000	11.111	0.100
358.100	11.073	0.100
358.200	19.756	0.100
358.300	13.967	0.100
358.400	17.674	0.100
358.500	12.737	0.100
358.600	17.694	0.100
358.700	16.817	0.100
358.800	14.878	0.100
358.900	16.274	0.100
359.000	15.897	0.100
359.100	12.984	0.100
359.200	12.117	0.100
359.300	19.569	0.100
359.400	23.578	0.100
359.500	12.030	0.100
359.600	12.159	0.100
359.700	9.782	0.100
359.800	23.610	0.100
359.900	25.263	0.100
360.000	11.476	0.100
360.100	15.386	0.100
360.200	20.391	0.100
360.300	15.641	0.100
360.400	21.243	0.100
360.500	12.302	0.100
360.600	19.660	0.100
360.700	17.428	0.100
360.800	18.438	0.100
360.900	23.765	0.100
361.000	15.721	0.100
361.100	14.578	0.100
361.200	13.102	0.100
361.300	20.184	0.100
361.400	12.112	0.100
361.500	21.017	0.100
361.600	20.741	0.100
361.700	11.898	0.100
361.800	21.634	0.100
361.900	22.176	0.100
362.000	15.751	0.100
362.100	14.953	0.100
362.200	17.376	0.100
362.300	23.241	0.100
362.400	14.672	0.100
362.500	12.231	0.100
362.600	20.365	0.100
362.700	26.636	0.100
362.800	13.921	0.100
362.900	23.852	0.100
363.000	15.563	0.100
363.100	13.477	0.100
363.200	16.422	0.100
363.300	17.654	0.100
363.400	19.886	0.100
363.500	19.111	0.100
363.600	30.763	0.100
363.700	8.770	0.100
363.800	12.208	0.100
363.900	9.227	0.100
364.000	20.017	0.100
364.100	16.031	0.100
364.200	21.268	0.100
364.300	24.050	0.100
364.400	15.877	0.100
364.500	25.233	0.100
364.600	19.627	0.100
364.700	11.407	0.100
364.800	26.952	0.100
364.900	26.744	0.100
365.000	27.735	0.100
365.100	22.460	0.100
365.200	17.160	0.100
365.300	20.832	0.100
365.400	12.026	0.100
365.500	12.954	0.100
365.600	20.143	0.100
365.700	16.949	0.100
365.800	15.309	0.100
365.900	18.874	0.100
366.000	22.241	0.100
366.100	8.906	0.100
366.200	20.209	0.100
366.300	21.712	0.100
366.400	16.247	0.100
366.500	19.211	0.100
366.600	22.455	0.100
366.700	22.528	0.100
366.800	22.195	0.100
366.900	19.514	0.100
367.000	23.254	0.100
367.100	15.329	0.100
367.200	19.324	0.100
367.300	14.570	0.100
367.400	23.784	0.100
367.500	25.068	0.100
367.600	21.001	0.100
367.700	19.689	0.100
367.800	27.347	0.100
367.900	23.383	0.100
368.000	19.058	0.100
368.100	20.011	0.100
368.200	16.737	0.100
368.300	20.333	0.100
368.400	16.116	0.100
368.500	21.595	0.100
368.600	19.709	0.100
368.700	24.342	0.100
368.800	22.156	0.100
368.900	16.358	0.100
369.000	17.903	0.100
369.100	23.056	0.100
369.200	18.300	0.100
369.300	20.714	0.100
369.400	18.609	0.100
369.500	20.894	0.100
369.600	20.259	0.100
369.700	18.953	0.100
369.800	27.250	0.100
369.900	22.645	0.100
370.000	24.473	0.100
370.100	27.530	0.100
370.200	20.822	0.100
370.300	13.265	0.100
370.400	15.546	0.100
370.500	19.065	0.100
370.600	24.109	0.100
370.700	19.227	0.100
370.800	25.195	0.100
370.900	27.468	0.100
371.000	19.513	0.100
371.100	22.813	0.100
371.200	21.094	0.100
371.300	20.366	0.100
371.400	21.536	0.100
371.500	21.723	0.100
371.600	24.766	0.100
371.700	20.828	0.100
371.800	22.420	0.100
371.900	25.168	0.100
372.000	17.766	0.100
372.100	25.304	0.100
372.200	23.956	0.100
372.300	20.874	0.100
372.400	26.543	0.100
372.500	19.598	0.100
372.600	21.787	0.100
372.700	17.606	0.100
372.800	20.959	0.100
372.900	20.118	0.100
373.000	22.960	0.100
373.100	26.431	0.100
373.200	23.628	0.100
373.300	25.098	0.100
373.400	27.191	0.100
373.500	13.537	0.100
373.600	22.722	0.100
373.700	17.631	0.100
373.800	21.215	0.100
373.900	27.645	0.100
374.000	19.538	0.100
374.100	28.992	0.100
374.200	20.764	0.100
374.300	26.322	0.100
374.400	22.737	0.100
374.500	15.192	0.100
374.600	24.076	0.100
374.700	23.825	0.100
374.800	17.950	0.100
374.900	10.382	0.100
375.000	22.464	0.100
375.100	30.198	0.100
375.200	17.830	0.100
375.300	26.767	0.100
375.400	23.720	0.100
375.500	11.772	0.100
375.600	25.731	0.100
375.700	25.873	0.100
375.800	24.270	0.100
375.900	27.929	0.100
376.000	18.453	0.100
376.100	21.639	0.100
376.200	24.957	0.100
376.300	32.379	0.100
376.400	20.015	0.100
376.500	23.948	0.100
376.600	18.228	0.100
376.700	22.035	0.100
376.800	24.993	0.100
376.900	22.781	0.100
377.000	25.917	0.100
377.100	27.768	0.100
377.200	26.528	0.100
377.300	19.800	0.100
377.400	13.555	0.100
377.500	15.987	0.100
377.600	28.866	0.100
377.700	23.479	0.100
377.800	24.158	0.100
377.900	19.634	0.100
378.000	25.793	0.100
378.100	21.572	0.100
378.200	20.637	0.100
378.300	19.453	0.100
378.400	26.479	0.100
378.500	23.420	0.100
378.600	22.219	0.100
378.700	19.520	0.100
378.800	21.402	0.100
378.900	14.076	0.100
379.000	23.172	0.100
379.100	14.326	0.100
379.200	24.160	0.100
379.300	25.443	0.100
379.400	24.978	0.100
379.500	25.810	0.100
379.600	17.410	0.100
379.700	16.507	0.100
379.800	26.616	0.100
379.900	25.125	0.100
380.000	26.286	0.100
380.100	26.063	0.100
380.200	19.619	0.100
380.300	23.108	0.100
380.400	24.554	0.100
380.500	21.995	0.100
380.600	21.907	0.100
380.700	24.956	0.100
380.800	23.640	0.100
380.900	16.222	0.100
381.000	20.722	0.100
381.100	31.314	0.100
381.200	31.494	0.100
381.300	30.907	0.100
381.400	24.332	0.100
381.500	22.903	0.100
381.600	24.784	0.100
381.700	20.907	0.100
381.800	29.043	0.100
381.900	25.205	0.100
382.000	18.579	0.100
382.100	22.528	0.100
382.200	24.870	0.100
382.300	24.171	0.100
382.400	14.246	0.100
382.500	26.873	0.100
382.600	19.011	0.100
382.700	23.679	0.100
382.800	29.519	0.100
382.900	25.006	0.100
383.000	19.786	0.100
383.100	22.575	0.100
383.200	25.880	0.100
383.300	26.719	0.100
383.400	26.420	0.100
383.500	28.219	0.100
383.600	21.811	0.100
383.700	22.230	0.100
383.800	29.359	0.100
383.900	22.941	0.100
384.000	17.112	0.100
384.100	19.476	0.100
384.200	25.732	0.100
384.300	19.999	0.100
384.400	23.958	0.100
384.500	21.943	0.100
384.600	28.519	0.100
384.700	23.445	0.100
384.800	24.232	0.100
384.900	25.680	0.100
385.000	25.463	0.100
385.100	22.429	0.100
385.200	13.407	0.100
385.300	21.788	0.100
385.400	23.386	0.100
385.500	22.504	0.100
385.600	30.152	0.100
385.700	23.599	0.100
385.800	27.999	0.100
385.900	21.664	0.100
386.000	24.349	0.100
386.100	27.587	0.100
386.200	31.935	0.100
386.300	24.730	0.100
386.400	25.477	0.100
386.500	20.321	0.100
386.600	13.656	0.100
386.700	34.748	0.100
386.800	36.711	0.100
386.900	19.855	0.100
387.000	33.005	0.100
387.100	14.188	0.100
387.200	30.891	0.100
387.300	23.825	0.100
387.400	30.615	0.100
387.500	27.900	0.100
387.600	20.244	0.100
387.700	18.464	0.100
387.800	28.948	0.100
387.900	31.518	0.100
388.000	19.335	0.100
388.100	17.215	0.100
388.200	21.877	0.100
388.300	28.454	0.100
388.400	25.090	0.100
388.500	25.454	0.100
388.600	24.635	0.100
388.700	25.143	0.100
388.800	26.079	0.100
388.900	29.943	0.100
389.000	18.758	0.100
389.100	17.873	0.100
389.200	18.954	0.100
389.300	26.603	0.100
389.400	22.168	0.100
389.500	29.114	0.100
389.600	35.492	0.100
389.700	23.607	0.100
389.800	21.115	0.100
389.900	21.300	0.100
390.000	25.070	0.100
390.100	29.513	0.100
390.200	21.768	0.100
390.300	24.783	0.100
390.400	22.547	0.100
390.500	22.233	0.100
390.600	30.990	0.100
390.700	27.261	0.100
390.800	20.505	0.100
390.900	20.960	0.100
391.000	19.278	0.100
391.100	23.383	0.100
391.200	23.447	0.100
391.300	15.723	0.100
391.400	17.862	0.100
391.500	15.483	0.100
391.600	17.664	0.100
391.700	19.586	0.100
391.800	16.261	0.100
391.900	16.096	0.100
392.000	15.183	0.100
392.100	9.160	0.100
392.200	12.261	0.100
392.300	22.496	0.100
392.400	13.418	0.100
392.500	14.834	0.100
392.600	5.175	0.100
392.700	20.767	0.100
392.800	18.239	0.100
392.900	12.508	0.100
393.000	16.885	0.100
393.100	13.478	0.100
393.200	9.215	0.100
393.300	14.570	0.100
393.400	11.316	0.100
393.500	21.402	0.100
393.600	9.219	0.100
393.700	11.804	0.100
393.800	15.285	0.100
393.900	10.843	0.100
394.000	3.686	0.100
394.100	11.591	0.100
394.200	15.076	0.100
394.300	15.257	0.100
394.400	16.328	0.100
394.500	18.623	0.100
394.600	11.371	0.100
394.700	8.886	0.100
394.800	7.087	0.100
394.900	11.844	0.100
395.000	12.192	0.100
395.100	16.719	0.100
395.200	10.204	0.100
395.300	11.739	0.100
395.400	16.147	0.100
395.500	14.175	0.100
395.600	15.627	0.100
395.700	4.775	0.100
395.800	8.274	0.100
395.900	11.987	0.100
396.000	13.141	0.100
396.100	6.932	0.100
396.200	8.506	0.100
396.300	11.199	0.100
396.400	5.332	0.100
396.500	11.678	0.100
396.600	11.299	0.100
396.700	17.986	0.100
396.800	13.588	0.100
396.900	12.748	0.100
397.000	12.799	0.100
397.100	5.486	0.100
397.200	14.548	0.100
397.300	8.249	0.100
397.400	19.885	0.100
397.500	6.197	0.100
397.600	13.308	0.100
397.700	14.186	0.100
397.800	4.187	0.100
397.900	13.628	0.100
398.000	12.602	0.100
398.100	7.871	0.100
398.200	15.939	0.100
398.300	10.338	0.100
398.400	13.659	0.100
398.500	6.763	0.100
398.600	8.643	0.100
398.700	13.915	0.100
398.800	8.030	0.100
398.900	9.510	0.100
399.000	17.666	0.100
399.100	7.380	0.100
399.200	9.612	0.100
399.300	8.455	0.100
399.400	6.419	0.100
399.500	5.250	0.100
399.600	13.971	0.100
399.700	8.243	0.100
399.800	14.160	0.100
399.900	10.245	0.100
400.000	5.630	0.100
400.100	13.440	0.100
400.200	14.462	0.100
400.300	12.746	0.100
400.400	3.231	0.100
400.500	4.447	0.100
400.600	13.072	0.100
400.700	4.276	0.100
400.800	8.529	0.100
400.900	9.133	0.100
401.000	6.549	0.100
401.100	14.159	0.100
401.200	13.592	0.100
401.300	-7.224	0.100
401.400	13.432	0.100
401.500	5.165	0.100
401.600	14.376	0.100
401.700	2.909	0.100
401.800	6.153	0.100
401.900	6.502	0.100
402.000	14.347	0.100
402.100	16.359	0.100
402.200	6.216	0.100
402.300	5.942	0.100
402.400	-0.554	0.100
402.500	6.113	0.100
402.600	11.278	0.100
402.700	9.821	0.100
402.800	16.428	0.100
402.900	8.110	0.100
403.000	0.180	0.100
403.100	11.160	0.100
403.200	11.880	0.100
403.300	7.482	0.100
403.400	9.739	0.100
403.500	9.867	0.100
403.600	6.240	0.100
403.700	9.415	0.100
403.800	6.342	0.100
403.900	8.133	0.100
404.000	5.283	0.100
404.100	5.213	0.100
404.200	7.407	0.100
404.300	7.041	0.100
404.400	7.014	0.100
404.500	5.073	0.100
404.600	7.782	0.100
404.700	-1.066	0.100
404.800	7.206	0.100
404.900	10.544	0.100
405.000	7.481	0.100
405.100	12.483	0.100
405.200	9.073	0.100
405.300	2.116	0.100
405.400	3.944	0.100
405.500	3.038	0.100
405.600	8.278	0.100
405.700	6.039	0.100
405.800	6.648	0.100
405.900	12.176	0.100
406.000	6.679	0.100
406.100	-2.559	0.100
406.200	8.773	0.100
406.300	6.308	0.100
406.400	7.757	0.100
406.500	1.990	0.100
406.600	5.780	0.100
406.700	12.736	0.100
406.800	3.433	0.100
406.900	1.699	0.100
407.000	0.444	0.100
407.100	7.380	0.100
407.200	12.954	0.100
407.300	13.509	0.100
407.400	8.012	0.100
407.500	-1.340	0.100
407.600	-0.448	0.100
407.700	9.835	0.100
407.800	4.254	0.100
407.900	5.434	0.100
408.000	2.715	0.100
408.100	0.424	0.100
408.200	5.522	0.100
408.300	3.922	0.100
408.400	8.182	0.100
408.500	10.529	0.100
408.600	0.258	0.100
408.700	4.239	0.100
408.800	10.025	0.100
408.900	-10.039	0.100
409.000	5.427	0.100
409.100	12.070	0.100
409.200	11.921	0.100
409.300	6.995	0.100
409.400	3.090	0.100
409.500	0.457	0.100
409.600	0.886	0.100
409.700	4.497	0.100
409.800	5.859	0.100
409.900	0.094	0.100
410.000	-0.355	0.100
410.100	10.579	0.100
410.200	7.230	0.100
410.300	6.151	0.100
410.400	3.489	0.100
410.500	9.816	0.100
410.600	-4.859	0.100
410.700	5.806	0.100
410.800	7.217	0.100
410.900	3.384	0.100
411.000	-1.213	0.100
411.100	8.229	0.100
411.200	-1.906	0.100
411.300	9.749	0.100
411.400	-0.171	0.100
411.500	0.124	0.100
411.600	3.898	0.100
411.700	5.445	0.100
411.800	5.257	0.100
411.900	6.186	0.100
412.000	-3.241	0.100
412.100	2.047	0.100
412.200	12.865	0.100
412.300	4.482	0.100
412.400	-12.126	0.100
412.500	4.147	0.100
412.600	1.021	0.100
412.700	5.287	0.100
412.800	0.954	0.100
412.900	2.502	0.100
413.000	2.211	0.100
413.100	5.532	0.100
413.200	5.000	0.100
413.300	-6.416	0.100
413.400	8.140	0.100
413.500	4.980	0.100
413.600	-4.706	0.100
413.700	4.065	0.100
413.800	1.809	0.100
413.900	-3.762	0.100
414.000	0.816	0.100
414.100	4.911	0.100
414.200	4.498	0.100
414.300	0.081	0.100
414.400	6.204	0.100
414.500	-2.248	0.100
414.600	-4.805	0.100
414.700	0.827	0.100
414.800	-1.891	0.100
414.900	6.905	0.100
415.000	2.255	0.100
415.100	0.261	0.100
415.200	-0.808	0.100
415.300	1.304	0.100
415.400	9.165	0.100
415.500	2.846	0.100
415.600	-6.322	0.100
415.700	3.133	0.100
415.800	3.394	0.100
415.900	-5.838	0.100
416.000	5.572	0.100
416.100	4.174	0.100
416.200	2.653	0.100
416.300	-2.030	0.100
416.400	-5.273	0.100
416.500	1.315	0.100
416.600	5.873	0.100
416.700	2.804	0.100
416.800	2.916	0.100
416.900	-3.551	0.100
417.000	-3.465	0.100
417.100	-2.217	0.100
417.200	4.782	0.100
417.300	0.943	0.100
417.400	2.796	0.100
417.500	-0.687	0.100
417.600	-0.478	0.100
417.700	5.634	0.100
417.800	-1.251	0.100
417.900	-2.969	0.100
418.000	2.759	0.100
418.100	-2.934	0.100
418.200	-3.643	0.100
418.300	5.093	0.100
418.400	2.750	0.100
418.500	-3.494	0.100
418.600	-4.175	0.100
418.700	3.794	0.100
418.800	-8.840	0.100
418.900	-6.095	0.100
419.000	-8.391	0.100
419.100	-1.487	0.100
419.200	5.882	0.100
419.300	2.541	0.100
419.400	-2.477	0.100
419.500	-3.043	0.100
419.600	7.060	0.100
419.700	0.368	0.100
419.800	5.364	0.100
419.900	-1.175	0.100
420.000	3.013	0.100
420.100	-8.068	0.100
420.200	-0.161	0.100
420.300	-0.206	0.100
420.400	-4.495	0.100
420.500	-7.588	0.100
420.600	-7.814	0.100
420.700	4.682	0.100
420.800	-2.074	0.100
420.900	4.814	0.100
421.000	-4.107	0.100
421.100	-3.156	0.100
421.200	-6.323	0.100
421.300	-1.624	0.100
421.400	3.418	0.100
421.500	-2.197	0.100
421.600	-6.119	0.100
421.700	1.365	0.100
421.800	2.665	0.100
421.900	-2.296	0.100
422.000	-1.774	0.100
422.100	-0.796	0.100
422.200	-3.236	0.100
422.300	-0.625	0.100
422.400	-1.010	0.100
422.500	1.542	0.100
422.600	0.220	0.100
422.700	3.568	0.100
422.800	-6.569	0.100
422.900	4.884	0.100
423.000	-2.456	0.100
423.100	-2.660	0.100
423.200	-6.960	0.100
423.300	-5.951	0.100
423.400	-1.573	0.100
423.500	-5.124	0.100
423.600	-7.441	0.100
423.700	0.305	0.100
423.800	-5.490	0.100
423.900	-3.748	0.100
424.000	-7.102	0.100
424.100	2.945	0.100
424.200	-7.846	0.100
424.300	-8.005	0.100
424.400	0.283	0.100
424.500	-6.936	0.100
424.600	2.997	0.100
424.700	4.040	0.100
424.800	-8.043	0.100
424.900	-8.150	0.100
425.000	-3.784	0.100
425.100	-1.635	0.100
425.200	2.091	0.100
425.300	-8.262	0.100
425.400	-4.102	0.100
425.500	-6.289	0.100
425.600	-3.551	0.100
425.700	-1.942	0.100
425.800	1.985	0.100
425.900	-1.099	0.100
426.000	-4.835	0.100
426.100	-9.541	0.100
426.200	-6.182	0.100
426.300	-9.174	0.100
426.400	-4.695	0.100
426.500	-3.569	0.100
426.600	-0.362	0.100
426.700	-0.172	0.100
426.800	1.230	0.100
426.900	-4.711	0.100
427.000	-4.128	0.100
427.100	-8.483	0.100
427.200	-3.259	0.100
427.300	-0.110	0.100
427.400	0.831	0.100
427.500	-9.837	0.100
427.600	-12.905	0.100
427.700	-7.694	0.100
427.800	-3.973	0.100
427.900	1.912	0.100
428.000	7.614	0.100
428.100	-4.011	0.100
428.200	-0.171	0.100
428.300	0.302	0.100
428.400	-7.765	0.100
428.500	3.514	0.100
428.600	-10.900	0.100
428.700	-14.564	0.100
428.800	-7.535	0.100
428.900	-6.262	0.100
429.000	-7.658	0.100
429.100	-1.158	0.100
429.200	-5.878	0.100
429.300	0.577	0.100
429.400	3.628	0.100
429.500	-2.008	0.100
429.600	-14.291	0.100
429.700	6.257	0.100
429.800	-6.623	0.100
429.900	-4.488	0.100
430.000	-2.171	0.100
430.100	-1.903	0.100
430.200	-5.538	0.100
430.300	-2.758	0.100
430.400	-7.622	0.100
430.500	-2.825	0.100
430.600	-8.756	0.100
430.700	-0.136	0.100
430.800	-2.680	0.100
430.900	-15.039	0.100
431.000	-7.217	0.100
431.100	0.845	0.100
431.200	3.055	0.100
431.300	-10.858	0.100
431.400	-1.982	0.100
431.500	-5.937	0.100
431.600	-13.004	0.100
431.700	-7.345	0.100
431.800	-4.998	0.100
431.900	-4.450	0.100
432.000	-5.168	0.100
432.100	-6.118	0.100
432.200	-10.191	0.100
432.300	-20.251	0.100
432.400	-1.706	0.100
432.500	1.452	0.100
432.600	-5.372	0.100
432.700	-3.516	0.100
432.800	-5.422	0.100
432.900	-5.372	0.100
433.000	-8.611	0.100
433.100	-11.274	0.100
433.200	-1.778	0.100
433.300	-4.840	0.100
433.400	-2.674	0.100
433.500	-2.200	0.100
433.600	-7.773	0.100
433.700	-12.376	0.100
433.800	-10.254	0.100
433.900	-6.884	0.100
434.000	-5.503	0.100
434.100	-10.006	0.100
434.200	-0.445	0.100
434.300	-6.475	0.100
434.400	-8.277	0.100
434.500	-3.356	0.100
434.600	-2.352	0.100
434.700	-15.115	0.100
434.800	-5.008	0.100
434.900	-5.292	0.100
435.000	-5.180	0.100
435.100	-0.416	0.100
435.200	-2.091	0.100
435.300	-5.347	0.100
435.400	-8.686	0.100
435.500	-5.748	0.100
435.600	-14.831	0.100
435.700	-8.262	0.100
435.800	-5.568	0.100
435.900	-14.353	0.100
436.000	-4.607	0.100
436.100	-7.500	0.100
436.200	-6.446	0.100
436.300	-11.081	0.100
436.400	-6.413	0.100
436.500	1.668	0.100
436.600	0.920	0.100
436.700	-1.654	0.100
436.800	-14.449	0.100
436.900	-2.140	0.100
437.000	-6.827	0.100
437.100	-3.933	0.100
437.200	-5.500	0.100
437.300	-7.338	0.100
437.400	-4.078	0.100
437.500	-15.501	0.100
437.600	1.462	0.100
437.700	-15.094	0.100
437.800	-7.374	0.100
437.900	3.068	0.100
438.000	-2.920	0.100
438.100	-7.196	0.100
438.200	-12.235	0.100
438.300	-10.805	0.100
438.400	-9.015	0.100
438.500	-3.661	0.100
438.600	-6.139	0.100
438.700	-7.111	0.100
438.800	-16.256	0.100
438.900	-10.955	0.100
439.000	-10.394	0.100
439.100	-6.187	0.100
439.200	-4.619	0.100
439.300	-12.359	0.100
439.400	-5.756	0.100
439.500	-5.882	0.100
439.600	-5.529	0.100
439.700	-6.725	0.100
439.800	-13.276	0.100
439.900	-8.667	0.100
440.000	-10.135	0.100
440.100	-4.858	0.100
440.200	-5.422	0.100
440.300	-6.480	0.100
440.400	-7.539	0.100
440.500	-2.760	0.100
440.600	-11.498	0.100
440.700	-10.077	0.100
440.800	-7.100	0.100
440.900	-3.715	0.100
441.000	-13.497	0.100
441.100	-9.682	0.100
441.200	-1.060	0.100
441.300	-13.226	0.100
441.400	-8.828	0.100
441.500	-11.383	0.100
441.600	-5.959	0.100
441.700	-2.390	0.100
441.800	-10.885	0.100
441.900	-2.154	0.100
442.000	-10.214	0.100
442.100	-10.879	0.100
442.200	-4.261	0.100
442.300	-0.551	0.100
442.400	-18.146	0.100
442.500	-3.873	0.100
442.600	-15.867	0.100
442.700	-9.802	0.100
442.800	-2.587	0.100
442.900	-6.736	0.100
443.000	-5.081	0.100
443.100	-2.505	0.100
443.200	-7.278	0.100
443.300	-6.150	0.100
443.400	-18.920	0.100
443.500	-4.923	0.100
443.600	-9.794	0.100
443.700	-3.893	0.100
443.800	-12.262	0.100
443.900	-11.253	0.100
444.000	-5.523	0.100
444.100	-7.631	0.100
444.200	-9.372	0.100
444.300	-17.194	0.100
444.400	-4.369	0.100
444.500	-3.848	0.100
444.600	-2.051	0.100
444.700	2.599	0.100
444.800	2.224	0.100
444.900	-12.567	0.100
445.000	-11.952	0.100
445.100	-10.536	0.100
445.200	-3.341	0.100
445.300	-9.177	0.100
445.400	-8.885	0.100
445.500	-19.442	0.100
445.600	-8.028	0.100
445.700	-1.881	0.100
445.800	-8.673	0.100
445.900	-1.974	0.100
446.000	-9.548	0.100
446.100	-11.759	0.100
446.200	-8.352	0.100
446.300	-10.537	0.100
446.400	-15.732	0.100
446.500	-1.266	0.100
446.600	-11.482	0.100
446.700	-13.437	0.100
446.800	-11.752	0.100
446.900	-8.450	0.100
447.000	-6.731	0.100
447.100	-5.743	0.100
447.200	-4.404	0.100
447.300	-12.280	0.100
447.400	-7.157	0.100
447.500	-4.645	0.100
447.600	-8.298	0.100
447.700	0.939	0.100
447.800	-9.605	0.100
447.900	-9.075	0.100
448.000	-16.948	0.100
448.100	-4.045	0.100
448.200	-4.215	0.100
448.300	-10.216	0.100
448.400	-11.159	0.100
448.500	-7.481	0.100
448.600	-1.246	0.100
448.700	-8.290	0.100
448.800	-8.793	0.100
448.900	-9.910	0.100
449.000	-11.102	0.100
449.100	0.924	0.100
449.200	-10.608	0.100
449.300	-0.502	0.100
449.400	-2.507	0.100
449.500	-7.957	0.100
449.600	-9.325	0.100
449.700	-8.368	0.100
449.800	-2.218	0.100
449.900	-11.268	0.100
450.000	-10.057	0.100
450.100	0.500	0.100
450.200	-10.465	0.100
450.300	-10.984	0.100
450.400	-5.322	0.100
450.500	-3.603	0.100
450.600	-12.203	0.100
450.700	-15.132	0.100
450.800	-11.131	0.100
450.900	-12.194	0.100
451.000	-2.024	0.100
451.100	-5.776	0.100
451.200	-2.125	0.100
451.300	-6.865	0.100
451.400	-11.337	0.100
451.500	-10.285	0.100
451.600	-21.292	0.100
451.700	-0.373	0.100
451.800	-9.115	0.100
451.900	-11.814	0.100
452.000	2.263	0.100
452.100	-10.554	0.100
452.200	-7.067	0.100
452.300	-9.800	0.100
452.400	-7.231	0.100
452.500	-8.174	0.100
452.600	-7.094	0.100
452.700	-4.546	0.100
452.800	-7.024	0.100
452.900	-12.087	0.100
453.000	-1.486	0.100
453.100	-5.994	0.100
453.200	-23.491	0.100
453.300	-1.986	0.100
453.400	-3.868	0.100
453.500	-6.292	0.100
453.600	-20.010	0.100
453.700	-6.358	0.100
453.800	0.326	0.100
453.900	-9.406	0.100
454.000	-1.032	0.100
454.100	-8.655	0.100
454.200	-15.186	0.100
454.300	-5.755	0.100
454.400	-5.623	0.100
454.500	-2.018	0.100
454.600	-21.509	0.100
454.700	-10.430	0.100
454.800	-7.410	0.100
454.900	-8.796	0.100
455.000	-14.351	0.100
455.100	-2.341	0.100
455.200	-4.499	0.100
455.300	-10.203	0.100
455.400	-13.227	0.100
455.500	-3.492	0.100
455.600	-13.080	0.100
455.700	-4.793	0.100
455.800	-9.081	0.100
455.900	-4.816	0.100
456.000	-5.000	0.100
456.100	-16.318	0.100
456.200	-8.547	0.100
456.300	-1.218	0.100
456.400	-13.873	0.100
456.500	-17.663	0.100
456.600	-7.054	0.100
456.700	-14.897	0.100
456.800	-13.801	0.100
456.900	1.181	0.100
457.000	-2.745	0.100
457.100	-8.738	0.100
457.200	-20.299	0.100
457.300	1.340	0.100
457.400	-3.397	0.100
457.500	-18.078	0.100
457.600	-15.201	0.100
457.700	-9.268	0.100
457.800	-9.738	0.100
457.900	-7.072	0.100
458.000	-4.626	0.100
458.100	-6.034	0.100
458.200	-10.077	0.100
458.300	-7.455	0.100
458.400	-12.138	0.100
458.500	-8.654	0.100
458.600	-9.850	0.100
458.700	-7.413	0.100
458.800	-1.777	0.100
458.900	-13.415	0.100
459.000	-11.523	0.100
459.100	-5.590	0.100
459.200	-3.235	0.100
459.300	-9.632	0.100
459.400	-7.545	0.100
459.500	-12.153	0.100
459.600	-8.680	0.100
459.700	-10.472	0.100
459.800	-10.285	0.100
459.900	-12.918	0.100
460.000	-5.262	0.100
460.100	-3.976	0.100
460.200	-14.135	0.100
460.300	-7.117	0.100
460.400	-10.899	0.100
460.500	-10.052	0.100
460.600	-10.019	0.100
460.700	-5.463	0.100
460.800	-15.032	0.100
460.900	-19.378	0.100
461.000	-8.815	0.100
461.100	-11.611	0.100
461.200	-6.605	0.100
461.300	-7.864	0.100
461.400	-13.360	0.100
461.500	-6.312	0.100
461.600	-0.323	0.100
461.700	-7.395	0.100
461.800	-14.152	0.100
461.900	-8.057	0.100
462.000	-8.869	0.100
462.100	-4.437	0.100
462.200	-19.418	0.100
462.300	-4.402	0.100
462.400	-2.184	0.100
462.500	-3.799	0.100
462.600	-11.949	0.100
462.700	-9.878	0.100
462.800	-11.919	0.100
462.900	-12.851	0.100
463.000	-11.690	0.100
463.100	-5.413	0.100
463.200	-15.351	0.100
463.300	-6.987	0.100
463.400	-12.017	0.100
463.500	-11.142	0.100
463.600	-3.104	0.100
463.700	-4.862	0.100
463.800	-14.223	0.100
463.900	-7.529	0.100
464.000	-4.798	0.100
464.100	-6.114	0.100
464.200	-1.403	0.100
464.300	-10.846	0.100
464.400	-17.317	0.100
464.500	-9.770	0.100
464.600	-11.285	0.100
464.700	-4.901	0.100
464.800	-3.769	0.100
464.900	-11.371	0.100
465.000	-14.938	0.100
465.100	-13.103	0.100
465.200	-12.613	0.100
465.300	-7.967	0.100
465.400	-10.971	0.100
465.500	-0.605	0.100
465.600	-4.830	0.100
465.700	-9.635	0.100
465.800	-15.718	0.100
465.900	-6.760	0.100
466.000	-12.547	0.100
466.100	-8.261	0.100
466.200	-10.906	0.100
466.300	-11.819	0.100
466.400	-6.921	0.100
466.500	-12.144	0.100
466.600	-4.616	0.100
466.700	-11.447	0.100
466.800	-16.744	0.100
466.900	-10.235	0.100
467.000	-14.199	0.100
467.100	-6.571	0.100
467.200	-12.592	0.100
467.300	-4.392	0.100
467.400	-1.448	0.100
467.500	-10.324	0.100
467.600	-9.061	0.100
467.700	-9.597	0.100
467.800	-11.351	0.100
467.900	-15.667	0.100
468.000	-10.605	0.100
468.100	-12.228	0.100
468.200	-2.921	0.100
468.300	-2.270	0.100
468.400	-17.742	0.100
468.500	-9.711	0.100
468.600	-2.211	0.100
468.700	-8.571	0.100
468.800	-14.205	0.100
468.900	-11.642	0.100
469.000	-13.115	0.100
469.100	-11.881	0.100
469.200	-4.166	0.100
469.300	-15.235	0.100
469.400	0.435	0.100
469.500	-9.024	0.100
469.600	-10.270	0.100
469.700	-7.960	0.100
469.800	-10.125	0.100
469.900	-17.165	0.100
470.000	-5.756	0.100
470.100	-8.680	0.100
470.200	-8.297	0.100
470.300	-18.667	0.100
470.400	-9.609	0.100
470.500	-11.392	0.100
470.600	-14.257	0.100
470.700	-16.842	0.100
470.800	-8.643	0.100
470.900	-12.369	0.100
471.000	-11.042	0.100
471.100	-10.105	0.100
471.200	-9.700	0.100
471.300	-5.582	0.100
471.400	-5.708	0.100
471.500	-7.029	0.100
471.600	-15.709	0.100
471.700	-1.048	0.100
471.800	-13.205	0.100
471.900	-6.714	0.100
472.000	-10.042	0.100
472.100	-16.203	0.100
472.200	-13.694	0.100
472.300	-6.356	0.100
472.400	-8.216	0.100
472.500	-7.016	0.100
472.600	-10.430	0.100
472.700	-15.203	0.100
472.800	-9.079	0.100
472.900	-15.963	0.100
473.000	-6.076	0.100
473.100	-15.505	0.100
473.200	-8.771	0.100
473.300	-6.044	0.100
473.400	-11.612	0.100
473.500	-3.537	0.100
473.600	-10.336	0.100
473.700	-15.547	0.100
473.800	-12.356	0.100
473.900	-9.451	0.100
474.000	-10.626	0.100
474.100	-12.538	0.100
474.200	-8.885	0.100
474.300	-13.351	0.100
474.400	-7.066	0.100
474.500	-11.530	0.100
474.600	-10.403	0.100
474.700	-3.509	0.100
474.800	-4.552	0.100
474.900	-13.693	0.100
475.000	-12.880	0.100
475.100	-14.479	0.100
475.200	-6.539	0.100
475.300	-15.062	0.100
475.400	-5.821	0.100
475.500	-9.537	0.100
475.600	-18.461	0.100
475.700	0.768	0.100
475.800	-20.067	0.100
475.900	-7.483	0.100
476.000	-13.058	0.100
476.100	-11.607	0.100
476.200	-12.218	0.100
476.300	-2.966	0.100
476.400	-8.245	0.100
476.500	-5.028	0.100
476.600	-6.778	0.100
476.700	-4.395	0.100
476.800	-10.889	0.100
476.900	-11.827	0.100
477.000	-11.772	0.100
477.100	-15.034	0.100
477.200	-7.367	0.100
477.300	-9.431	0.100
477.400	-11.764	0.100
477.500	-3.047	0.100
477.600	-14.127	0.100
477.700	-15.097	0.100
477.800	-6.786	0.100
477.900	-4.579	0.100
478.000	-8.491	0.100
478.100	-8.853	0.100
478.200	-17.590	0.100
478.300	-8.461	0.100
478.400	0.737	0.100
478.500	-1.425	0.100
478.600	-9.970	0.100
478.700	-7.187	0.100
478.800	-16.423	0.100
478.900	-11.183	0.100
479.000	-6.891	0.100
479.100	-9.704	0.100
479.200	-15.443	0.100
479.300	-17.357	0.100
479.400	-9.529	0.100
479.500	-14.647	0.100
479.600	-12.117	0.100
479.700	-7.864	0.100
479.800	-10.375	0.100
479.900	-16.943	0.100
480.000	-10.499	0.100
480.100	-7.420	0.100
480.200	-8.313	0.100
480.300	-6.865	0.100
480.400	-5.069	0.100
480.500	-13.914	0.100
480.600	-15.791	0.100
480.700	-2.665	0.100
480.800	-3.541	0.100
480.900	-8.169	0.100
481.000	-5.004	0.100
481.100	-8.892	0.100
481.200	-7.935	0.100
481.300	-9.270	0.100
481.400	5.222	0.100
481.500	3.792	0.100
481.600	-8.139	0.100
481.700	-6.225	0.100
481.800	1.619	0.100
481.900	9.663	0.100
482.000	-1.664	0.100
482.100	5.206	0.100
482.200	-6.170	0.100
482.300	-2.777	0.100
482.400	-1.796	0.100
482.500	-3.564	0.100
482.600	-2.614	0.100
482.700	-0.390	0.100
482.800	0.277	0.100
482.900	-2.320	0.100
483.000	-6.853	0.100
483.100	8.705	0.100
483.200	1.598	0.100
483.300	8.314	0.100
483.400	-1.431	0.100
483.500	-4.115	0.100
483.600	-6.935	0.100
483.700	2.895	0.100
483.800	2.766	0.100
483.900	-2.220	0.100
484.000	4.813	0.100
484.100	5.917	0.100
484.200	5.852	0.100
484.300	-0.844	0.100
484.400	0.178	0.100
484.500	5.598	0.100
484.600	-2.054	0.100
484.700	-0.078	0.100
484.800	0.751	0.100
484.900	-4.029	0.100
485.000	2.257	0.100
485.100	2.308	0.100
485.200	-4.437	0.100
485.300	1.928	0.100
485.400	0.069	0.100
485.500	5.358	0.100
485.600	4.627	0.100
485.700	-7.005	0.100
485.800	-1.443	0.100
485.900	0.877	0.100
486.000	-2.379	0.100
486.100	10.301	0.100
486.200	-1.719	0.100
486.300	1.427	0.100
486.400	5.815	0.100
486.500	0.962	0.100
486.600	7.815	0.100
486.700	-1.650	0.100
486.800	6.733	0.100
486.900	2.046	0.100
487.000	-1.799	0.100
487.100	-1.303	0.100
487.200	-6.167	0.100
487.300	-6.236	0.100
487.400	4.662	0.100
487.500	-1.156	0.100
487.600	2.216	0.100
487.700	8.973	0.100
487.800	13.751	0.100
487.900	5.970	0.100
488.000	1.224	0.100
488.100	-6.165	0.100
488.200	7.410	0.100
488.300	1.534	0.100
488.400	-5.133	0.100
488.500	-5.247	0.100
488.600	-1.446	0.100
488.700	2.450	0.100
488.800	7.359	0.100
488.900	5.758	0.100
489.000	-4.999	0.100
489.100	1.008	0.100
489.200	9.259	0.100
489.300	1.441	0.100
489.400	9.378	0.100
489.500	0.984	0.100
489.600	3.213	0.100
489.700	-4.837	0.100
489.800	0.297	0.100
489.900	0.138	0.100
490.000	2.968	0.100
490.100	7.610	0.100
490.200	3.800	0.100
490.300	5.925	0.100
490.400	2.848	0.100
490.500	0.809	0.100
490.600	4.316	0.100
490.700	6.534	0.100
490.800	3.320	0.100
490.900	9.566	0.100
491.000	1.180	0.100
491.100	5.074	0.100
491.200	-0.869	0.100
491.300	2.127	0.100
491.400	5.348	0.100
491.500	5.672	0.100
491.600	5.260	0.100
491.700	5.037	0.100
491.800	-1.590	0.100
491.900	1.575	0.100
492.000	12.697	0.100
492.100	4.299	0.100
492.200	2.446	0.100
492.300	5.000	0.100
492.400	6.756	0.100
492.500	4.380	0.100
492.600	2.862	0.100
492.700	0.891	0.100
492.800	8.868	0.100
492.900	5.592	0.100
493.000	-3.035	0.100
493.100	3.751	0.100
493.200	16.346	0.100
493.300	4.387	0.100
493.400	7.599	0.100
493.500	6.033	0.100
493.600	6.191	0.100
493.700	13.754	0.100
493.800	5.948	0.100
493.900	-6.099	0.100
494.000	10.803	0.100
494.100	9.240	0.100
494.200	14.151	0.100
494.300	1.915	0.100
494.400	6.914	0.100
494.500	13.069	0.100
494.600	6.317	0.100
494.700	3.307	0.100
494.800	4.660	0.100
494.900	13.212	0.100
495.000	7.215	0.100
495.100	5.995	0.100
495.200	12.501	0.100
495.300	7.011	0.100
495.400	7.878	0.100
495.500	3.007	0.100
495.600	-1.904	0.100
495.700	-4.301	0.100
495.800	4.917	0.100
495.900	10.406	0.100
496.000	11.814	0.100
496.100	6.211	0.100
496.200	17.217	0.100
496.300	3.810	0.100
496.400	4.792	0.100
496.500	2.628	0.100
496.600	7.196	0.100
496.700	4.640	0.100
496.800	4.402	0.100
496.900	1.233	0.100
497.000	2.438	0.100
497.100	9.870	0.100
497.200	0.724	0.100
497.300	11.556	0.100
497.400	4.700	0.100
497.500	9.529	0.100
497.600	6.885	0.100
497.700	12.088	0.100
497.800	2.358	0.100
497.900	3.136	0.100
498.000	7.847	0.100
498.100	15.008	0.100
498.200	5.554	0.100
498.300	11.654	0.100
498.400	12.426	0.100
498.500	13.239	0.100
498.600	-2.776	0.100
498.700	7.988	0.100
498.800	5.413	0.100
498.900	10.489	0.100
499.000	0.665	0.100
499.100	4.742	0.100
499.200	9.421	0.100
499.300	8.422	0.100
499.400	5.388	0.100
499.500	17.200	0.100
499.600	11.788	0.100
499.700	9.719	0.100
499.800	16.132	0.100
499.900	12.948	0.100
500.000	4.370	0.100
500.100	9.802	0.100
500.200	11.594	0.100
500.300	11.046	0.100
500.400	12.027	0.100
500.500	8.588	0.100
500.600	5.252	0.100
500.700	18.423	0.100
500.800	10.696	0.100
500.900	6.676	0.100
501.000	6.255	0.100
501.100	16.634	0.100
501.200	13.368	0.100
501.300	17.641	0.100
501.400	11.692	0.100
501.500	11.319	0.100
501.600	18.895	0.100
501.700	5.282	0.100
501.800	15.213	0.100
501.900	13.673	0.100
502.000	1.208	0.100
502.100	6.060	0.100
502.200	12.085	0.100
502.300	12.193	0.100
502.400	9.247	0.100
502.500	15.152	0.100
502.600	10.409	0.100
502.700	8.136	0.100
502.800	17.264	0.100
502.900	15.881	0.100
503.000	8.122	0.100
503.100	11.716	0.100
503.200	12.056	0.100
503.300	7.345	0.100
503.400	12.505	0.100
503.500	9.007	0.100
503.600	15.595	0.100
503.700	8.380	0.100
503.800	9.406	0.100
503.900	12.307	0.100
504.000	7.548	0.100
504.100	15.293	0.100
504.200	11.815	0.100
504.300	8.383	0.100
504.400	6.900	0.100
504.500	11.296	0.100
504.600	10.831	0.100
504.700	16.435	0.100
504.800	17.114	0.100
504.900	22.653	0.100
505.000	9.396	0.100
505.100	9.798	0.100
505.200	3.910	0.100
505.300	8.230	0.100
505.400	19.507	0.100
505.500	15.015	0.100
505.600	16.153	0.100
505.700	15.617	0.100
505.800	10.821	0.100
505.900	15.658	0.100
506.000	10.105	0.100
506.100	21.688	0.100
506.200	15.242	0.100
506.300	18.457	0.100
506.400	11.151	0.100
506.500	12.509	0.100
506.600	6.386	0.100
506.700	7.693	0.100
506.800	10.869	0.100
506.900	17.434	0.100
507.000	15.544	0.100
507.100	17.991	0.100
507.200	12.817	0.100
507.300	14.405	0.100
507.400	12.382	0.100
507.500	16.044	0.100
507.600	9.209	0.100
507.700	9.351	0.100
507.800	14.227	0.100
507.900	12.357	0.100
508.000	13.186	0.100
508.100	16.542	0.100
508.200	14.183	0.100
508.300	23.929	0.100
508.400	15.527	0.100
508.500	8.208	0.100
508.600	10.331	0.100
508.700	22.567	0.100
508.800	14.185	0.100
508.900	22.437	0.100
509.000	18.492	0.100
509.100	10.084	0.100
509.200	13.534	0.100
509.300	20.226	0.100
509.400	14.923	0.100
509.500	25.659	0.100
509.600	15.418	0.100
509.700	12.204	0.100
509.800	23.767	0.100
509.900	8.989	0.100
510.000	22.601	0.100
510.100	13.448	0.100
510.200	17.696	0.100
510.300	14.445	0.100
510.400	14.271	0.100
510.500	19.893	0.100
510.600	18.221	0.100
510.700	9.558	0.100
510.800	19.191	0.100
510.900	13.214	0.100
511.000	17.580	0.100
511.100	20.979	0.100
511.200	21.654	0.100
511.300	15.822	0.100
511.400	20.970	0.100
511.500	13.351	0.100
511.600	13.674	0.100
511.700	10.299	0.100
511.800	10.232	0.100
511.900	23.274	0.100
512.000	16.803	0.100
512.100	17.904	0.100
512.200	8.072	0.100
512.300	18.184	0.100
512.400	17.098	0.100
512.500	23.020	0.100
512.600	9.603	0.100
512.700	23.979	0.100
512.800	19.153	0.100
512.900	20.084	0.100
513.000	12.576	0.100
513.100	22.617	0.100
513.200	26.404	0.100
513.300	20.725	0.100
513.400	17.810	0.100
513.500	18.337	0.100
513.600	14.812	0.100
513.700	14.483	0.100
513.800	20.831	0.100
513.900	20.663	0.100
514.000	13.460	0.100
514.100	22.380	0.100
514.200	19.460	0.100
514.300	15.246	0.100
514.400	11.210	0.100
514.500	17.636	0.100
514.600	20.147	0.100
514.700	24.060	0.100
514.800	19.035	0.100
514.900	19.478	0.100
515.000	19.296	0.100
515.100	20.968	0.100
515.200	27.659	0.100
515.300	17.547	0.100
515.400	18.620	0.100
515.500	12.528	0.100
515.600	18.027	0.100
515.700	10.013	0.100
515.800	16.953	0.100
515.900	15.577	0.100
516.000	22.576	0.100
516.100	24.584	0.100
516.200	20.580	0.100
516.300	14.435	0.100
516.400	15.076	0.100
516.500	21.155	0.100
516.600	31.823	0.100
516.700	19.074	0.100
516.800	14.705	0.100
516.900	1.841	0.100
517.000	19.916	0.100
517.100	18.559	0.100
517.200	16.653	0.100
517.300	21.717	0.100
517.400	27.424	0.100
517.500	27.275	0.100
517.600	18.374	0.100
517.700	12.343	0.100
517.800	20.277	0.100
517.900	24.089	0.100
518.000	20.484	0.100
518.100	15.106	0.100
518.200	18.946	0.100
518.300	20.083	0.100
518.400	14.877	0.100
518.500	20.165	0.100
518.600	21.515	0.100
518.700	13.130	0.100
518.800	15.730	0.100
518.900	19.426	0.100
519.000	26.793	0.100
519.100	17.322	0.100
519.200	11.333	0.100
519.300	18.089	0.100
519.400	22.654	0.100
519.500	17.108	0.100
519.600	30.255	0.100
519.700	18.250	0.100
519.800	18.920	0.100
519.900	19.552	0.100
520.000	19.696	0.100
520.100	14.443	0.100
520.200	23.999	0.100
520.300	20.486	0.100
520.400	15.125	0.100
520.500	20.007	0.100
520.600	17.080	0.100
520.700	21.142	0.100
520.800	18.054	0.100
520.900	22.474	0.100
521.000	21.186	0.100
521.100	16.935	0.100
521.200	22.719	0.100
521.300	25.227	0.100
521.400	20.558	0.100
521.500	11.142	0.100
521.600	13.954	0.100
521.700	16.823	0.100
521.800	14.437	0.100
521.900	16.197	0.100
522.000	37.997	0.100
522.100	17.439	0.100
522.200	18.620	0.100
522.300	18.719	0.100
522.400	16.922	0.100
522.500	21.785	0.100
522.600	20.584	0.100
522.700	11.611	0.100
522.800	31.043	0.100
522.900	22.961	0.100
523.000	16.254	0.100
523.100	27.783	0.100
523.200	29.252	0.100
523.300	23.466	0.100
523.400	21.881	0.100
523.500	18.590	0.100
523.600	16.518	0.100
523.700	16.338	0.100
523.800	30.294	0.100
523.900	19.813	0.100
524.000	18.121	0.100
524.100	23.541	0.100
524.200	29.717	0.100
524.300	18.141	0.100
524.400	22.953	0.100
524.500	22.242	0.100
524.600	20.583	0.100
524.700	27.375	0.100
524.800	20.601	0.100
524.900	19.644	0.100
525.000	22.488	0.100
525.100	20.382	0.100
525.200	24.716	0.100
525.300	19.737	0.100
525.400	18.281	0.100
525.500	22.024	0.100
525.600	18.835	0.100
525.700	16.756	0.100
525.800	18.833	0.100
525.900	25.500	0.100
526.000	26.125	0.100
526.100	23.071	0.100
526.200	23.913	0.100
526.300	18.213	0.100
526.400	25.690	0.100
526.500	20.634	0.100
526.600	16.812	0.100
526.700	18.940	0.100
526.800	27.923	0.100
526.900	23.001	0.100
527.000	13.438	0.100
527.100	23.510	0.100
527.200	21.994	0.100
527.300	20.302	0.100
527.400	28.197	0.100
527.500	21.928	0.100
527.600	19.800	0.100
527.700	24.031	0.100
527.800	22.188	0.100
527.900	22.461	0.100
528.000	28.119	0.100
528.100	21.438	0.100
528.200	21.297	0.100
528.300	28.863	0.100
528.400	29.810	0.100
528.500	12.749	0.100
528.600	25.957	0.100
528.700	24.586	0.100
528.800	29.589	0.100
528.900	25.243	0.100
529.000	21.140	0.100
529.100	17.814	0.100
529.200	22.712	0.100
529.300	27.273	0.100
529.400	12.367	0.100
529.500	31.914	0.100
529.600	18.152	0.100
529.700	32.542	0.100
529.800	24.905	0.100
529.900	17.452	0.100
530.000	31.094	0.100
530.100	17.794	0.100
530.200	13.346	0.100
530.300	29.850	0.100
530.400	26.984	0.100
530.500	21.039	0.100
530.600	20.866	0.100
530.700	25.412	0.100
530.800	24.126	0.100
530.900	26.287	0.100
531.000	12.294	0.100
531.100	15.694	0.100
531.200	26.192	0.100
531.300	28.798	0.100
531.400	27.463	0.100
531.500	28.476	0.100
531.600	17.365	0.100
531.700	21.423	0.100
531.800	26.419	0.100
531.900	24.208	0.100
532.000	12.984	0.100
532.100	27.137	0.100
532.200	23.090	0.100
532.300	23.023	0.100
532.400	24.210	0.100
532.500	26.753	0.100
532.600	15.273	0.100
532.700	14.842	0.100
532.800	23.713	0.100
532.900	24.682	0.100
533.000	24.435	0.100
533.100	27.384	0.100
533.200	27.391	0.100
533.300	20.862	0.100
533.400	12.373	0.100
533.500	21.889	0.100
533.600	25.820	0.100
533.700	17.071	0.100
533.800	27.120	0.100
533.900	28.314	0.100
534.000	20.760	0.100
534.100	19.991	0.100
534.200	28.320	0.100
534.300	25.463	0.100
534.400	32.145	0.100
534.500	28.050	0.100
534.600	23.769	0.100
534.700	16.402	0.100
534.800	23.400	0.100
534.900	19.657	0.100
535.000	25.599	0.100
535.100	22.871	0.100
535.200	31.603	0.100
535.300	28.841	0.100
535.400	26.838	0.100
535.500	24.442	0.100
535.600	23.257	0.100
535.700	28.324	0.100
535.800	23.495	0.100
535.900	22.977	0.100
536.000	29.982	0.100
536.100	21.136	0.100
536.200	14.001	0.100
536.300	31.684	0.100
536.400	22.044	0.100
536.500	30.040	0.100
536.600	22.407	0.100
536.700	21.080	0.100
536.800	24.111	0.100
536.900	29.274	0.100
537.000	25.356	0.100
537.100	27.569	0.100
537.200	26.057	0.100
537.300	16.142	0.100
537.400	30.534	0.100
537.500	21.445	0.100
537.600	25.432	0.100
537.700	19.396	0.100
537.800	12.146	0.100
537.900	28.957	0.100
538.000	35.335	0.100
538.100	18.342	0.100
538.200	26.279	0.100
538.300	31.475	0.100
538.400	29.994	0.100
538.500	26.285	0.100
538.600	24.141	0.100
538.700	18.516	0.100
538.800	25.591	0.100
538.900	24.425	0.100
539.000	30.004	0.100
539.100	25.209	0.100
539.200	25.130	0.100
539.300	22.414	0.100
539.400	15.280	0.100
539.500	28.203	0.100
539.600	23.683	0.100
539.700	23.433	0.100
539.800	28.393	0.100
539.900	19.238	0.100
540.000	22.717	0.100
540.100	19.461	0.100
540.200	32.320	0.100
540.300	27.326	0.100
540.400	18.954	0.100
540.500	24.256	0.100
540.600	24.594	0.100
540.700	17.103	0.100
540.800	35.658	0.100
540.900	27.208	0.100
541.000	8.876	0.100
541.100	9.463	0.100
541.200	19.586	0.100
541.300	25.020	0.100
541.400	22.860	0.100
541.500	22.054	0.100
541.600	20.632	0.100
541.700	4.093	0.100
541.800	12.890	0.100
541.900	23.689	0.100
542.000	17.054	0.100
542.100	22.738	0.100
542.200	15.933	0.100
542.300	13.255	0.100
542.400	18.824	0.100
542.500	1.647	0.100
542.600	10.042	0.100
542.700	16.362	0.100
542.800	18.360	0.100
542.900	9.461	0.100
543.000	10.763	0.100
543.100	13.898	0.100
543.200	-1.430	0.100
543.300	8.590	0.100
543.400	15.592	0.100
543.500	12.944	0.100
543.600	14.110	0.100
543.700	9.636	0.100
543.800	6.228	0.100
543.900	7.144	0.100
544.000	5.652	0.100
544.100	14.776	0.100
544.200	14.839	0.100
544.300	8.604	0.100
544.400	15.179	0.100
544.500	10.845	0.100
544.600	13.602	0.100
544.700	12.214	0.100
544.800	13.888	0.100
544.900	6.946	0.100
545.000	5.722	0.100
545.100	8.331	0.100
545.200	6.081	0.100
545.300	16.270	0.100
545.400	16.384	0.100
545.500	7.882	0.100
545.600	11.728	0.100
545.700	10.561	0.100
545.800	12.282	0.100
545.900	7.826	0.100
546.000	5.102	0.100
546.100	6.377	0.100
546.200	11.583	0.100
546.300	11.298	0.100
546.400	12.047	0.100
546.500	13.192	0.100
546.600	3.644	0.100
546.700	6.348	0.100
546.800	12.903	0.100
546.900	11.352	0.100
547.000	7.155	0.100
547.100	4.927	0.100
547.200	13.234	0.100
547.300	9.686	0.100
547.400	6.491	0.100
547.500	7.119	0.100
547.600	10.270	0.100
547.700	14.580	0.100
547.800	14.900	0.100
547.900	4.307	0.100
548.000	8.124	0.100
548.100	9.078	0.100
548.200	12.464	0.100
548.300	6.693	0.100
548.400	11.645	0.100
548.500	7.881	0.100
548.600	6.658	0.100
548.700	6.091	0.100
548.800	14.233	0.100
548.900	15.156	0.100
549.000	14.650	0.100
549.100	9.037	0.100
549.200	9.784	0.100
549.300	11.983	0.100
549.400	-1.934	0.100
549.500	11.697	0.100
549.600	-0.502	0.100
549.700	15.845	0.100
549.800	7.151	0.100
549.900	2.336	0.100
550.000	3.787	0.100
550.100	11.736	0.100
550.200	2.573	0.100
550.300	2.808	0.100
550.400	7.026	0.100
550.500	12.440	0.100
550.600	7.574	0.100
550.700	9.842	0.100
550.800	10.289	0.100
550.900	9.099	0.100
551.000	5.919	0.100
551.100	9.052	0.100
551.200	0.931	0.100
551.300	6.566	0.100
551.400	4.779	0.100
551.500	0.342	0.100
551.600	9.073	0.100
551.700	6.517	0.100
551.800	5.606	0.100
551.900	3.570	0.100
552.000	4.683	0.100
552.100	10.740	0.100
552.200	6.556	0.100
552.300	6.622	0.100
552.400	20.168	0.100
552.500	12.250	0.100
552.600	14.541	0.100
552.700	3.502	0.100
552.800	9.728	0.100
552.900	8.645	0.100
553.000	7.914	0.100
553.100	4.740	0.100
553.200	0.901	0.100
553.300	5.024	0.100
553.400	11.939	0.100
553.500	7.135	0.100
553.600	2.757	0.100
553.700	12.115	0.100
553.800	3.582	0.100
553.900	10.990	0.100
554.000	4.440	0.100
554.100	0.958	0.100
554.200	5.956	0.100
554.300	4.618	0.100
554.400	1.718	0.100
554.500	11.171	0.100
554.600	4.343	0.100
554.700	9.632	0.100
554.800	9.958	0.100
554.900	4.890	0.100
555.000	4.118	0.100
555.100	10.667	0.100
555.200	5.660	0.100
555.300	12.418	0.100
555.400	6.528	0.100
555.500	9.065	0.100
555.600	5.630	0.100
555.700	5.282	0.100
555.800	6.522	0.100
555.900	1.176	0.100
556.000	5.409	0.100
556.100	7.414	0.100
556.200	10.893	0.100
556.300	0.321	0.100
556.400	10.005	0.100
556.500	7.643	0.100
556.600	7.171	0.100
556.700	8.333	0.100
556.800	-1.317	0.100
556.900	-0.743	0.100
557.000	4.374	0.100
557.100	10.058	0.100
557.200	2.950	0.100
557.300	6.271	0.100
557.400	8.596	0.100
557.500	4.728	0.100
557.600	3.461	0.100
557.700	5.362	0.100
557.800	-4.469	0.100
557.900	7.127	0.100
558.000	2.180	0.100
558.100	4.462	0.100
558.200	10.222	0.100
558.300	6.546	0.100
558.400	-2.965	0.100
558.500	3.971	0.100
558.600	6.079	0.100
558.700	2.934	0.100
558.800	3.936	0.100
558.900	6.829	0.100
559.000	-2.644	0.100
559.100	-1.342	0.100
559.200	5.139	0.100
559.300	3.883	0.100
559.400	2.961	0.100
559.500	-0.869	0.100
559.600	8.409	0.100
559.700	5.608	0.100
559.800	2.428	0.100
559.900	-4.486	0.100
560.000	4.602	0.100
560.100	-0.853	0.100
560.200	3.732	0.100
560.300	5.518	0.100
560.400	6.327	0.100
560.500	-0.292	0.100
560.600	-1.946	0.100
560.700	-1.578	0.100
560.800	13.840	0.100
560.900	8.292	0.100
561.000	4.664	0.100
561.100	-3.311	0.100
561.200	-0.736	0.100
561.300	-0.112	0.100
561.400	6.394	0.100
561.500	1.955	0.100
561.600	0.981	0.100
561.700	9.911	0.100
561.800	0.616	0.100
561.900	-6.633	0.100
562.000	-2.178	0.100
562.100	9.899	0.100
562.200	1.558	0.100
562.300	-4.611	0.100
562.400	3.809	0.100
562.500	5.952	0.100
562.600	-5.157	0.100
562.700	6.280	0.100
562.800	0.471	0.100
562.900	-3.537	0.100
563.000	-1.850	0.100
563.100	1.244	0.100
563.200	-10.334	0.100
563.300	3.342	0.100
563.400	9.480	0.100
563.500	-4.569	0.100
563.600	5.688	0.100
563.700	-2.461	0.100
563.800	-7.076	0.100
563.900	11.751	0.100
564.000	0.147	0.100
564.100	2.935	0.100
564.200	3.849	0.100
564.300	0.056	0.100
564.400	0.474	0.100
564.500	-3.207	0.100
564.600	0.904	0.100
564.700	-7.083	0.100
564.800	8.822	0.100
564.900	1.221	0.100
565.000	-1.050	0.100
565.100	-6.344	0.100
565.200	-1.420	0.100
565.300	-0.470	0.100
565.400	-1.759	0.100
565.500	-3.776	0.100
565.600	0.407	0.100
565.700	1.728	0.100
565.800	3.962	0.100
565.900	-0.944	0.100
566.000	2.506	0.100
566.100	-2.196	0.100
566.200	-6.772	0.100
566.300	3.621	0.100
566.400	-2.811	0.100
566.500	0.659	0.100
566.600	2.903	0.100
566.700	-2.986	0.100
566.800	-1.926	0.100
566.900	-3.054	0.100
567.000	3.798	0.100
567.100	-2.021	0.100
567.200	-7.485	0.100
567.300	-1.294	0.100
567.400	2.008	0.100
567.500	2.067	0.100
567.600	4.987	0.100
567.700	-0.665	0.100
567.800	1.695	0.100
567.900	-13.727	0.100
568.000	-3.496	0.100
568.100	-2.857	0.100
568.200	8.508	0.100
568.300	-7.798	0.100
568.400	-1.849	0.100
568.500	-0.605	0.100
568.600	-2.855	0.100
568.700	-1.656	0.100
568.800	-3.025	0.100
568.900	0.102	0.100
569.000	-8.779	0.100
569.100	-9.965	0.100
569.200	3.506	0.100
569.300	5.112	0.100
569.400	-4.976	0.100
569.500	3.936	0.100
569.600	-4.586	0.100
569.700	-6.483	0.100
569.800	-5.676	0.100
569.900	2.162	0.100
570.000	-1.684	0.100
570.100	-4.044	0.100
570.200	5.954	0.100
570.300	-7.602	0.100
570.400	-6.133	0.100
570.500	-2.773	0.100
570.600	3.343	0.100
570.700	2.791	0.100
570.800	8.742	0.100
570.900	-3.966	0.100
571.000	1.265	0.100
571.100	-11.580	0.100
571.200	-10.300	0.100
571.300	0.898	0.100
571.400	2.233	0.100
571.500	-6.397	0.100
571.600	-3.493	0.100
571.700	-0.680	0.100
571.800	-0.185	0.100
571.900	-12.365	0.100
572.000	-1.717	0.100
572.100	0.006	0.100
572.200	-7.156	0.100
572.300	2.846	0.100
572.400	-3.006	0.100
572.500	0.031	0.100
572.600	-1.678	0.100
572.700	-7.743	0.100
572.800	2.141	0.100
572.900	-1.726	0.100
573.000	-7.704	0.100
573.100	-1.136	0.100
573.200	-10.640	0.100
573.300	-3.270	0.100
573.400	-1.344	0.100
573.500	0.610	0.100
573.600	-18.622	0.100
573.700	-0.005	0.100
573.800	-2.809	0.100
573.900	-1.770	0.100
574.000	-5.741	0.100
574.100	0.403	0.100
574.200	-1.157	0.100
574.300	-8.144	0.100
574.400	-7.079	0.100
574.500	-5.631	0.100
574.600	-3.256	0.100
574.700	-1.649	0.100
574.800	-2.311	0.100
574.900	-5.426	0.100
575.000	0.626	0.100
575.100	-7.212	0.100
575.200	-5.617	0.100
575.300	-6.582	0.100
575.400	-4.028	0.100
575.500	-6.417	0.100
575.600	3.157	0.100
575.700	0.011	0.100
575.800	-6.271	0.100
575.900	-0.020	0.100
576.000	-10.228	0.100
576.100	-4.658	0.100
576.200	-10.333	0.100
576.300	-3.177	0.100
576.400	-10.282	0.100
576.500	2.747	0.100
576.600	-10.814	0.100
576.700	-2.960	0.100
576.800	-0.481	0.100
576.900	-14.786	0.100
577.000	-3.092	0.100
577.100	-0.270	0.100
577.200	-6.505	0.100
577.300	-3.583	0.100
577.400	-7.524	0.100
577.500	-13.468	0.100
577.600	-1.729	0.100
577.700	-8.997	0.100
577.800	0.850	0.100
577.900	-3.951	0.100
578.000	-0.910	0.100
578.100	-9.958	0.100
578.200	-4.546	0.100
578.300	-1.909	0.100
578.400	-5.360	0.100
578.500	-8.614	0.100
578.600	-7.238	0.100
578.700	-4.255	0.100
578.800	-1.284	0.100
578.900	2.403	0.100
579.000	-10.277	0.100
579.100	0.856	0.100
579.200	-0.239	0.100
579.300	-2.968	0.100
579.400	-7.177	0.100
579.500	-17.265	0.100
579.600	1.181	0.100
579.700	-1.002	0.100
579.800	3.034	0.100
579.900	-5.606	0.100
580.000	-4.203	0.100
580.100	-3.891	0.100
580.200	-14.325	0.100
580.300	-0.984	0.100
580.400	-5.791	0.100
580.500	-16.503	0.100
580.600	2.534	0.100
580.700	-8.424	0.100
580.800	-4.560	0.100
580.900	-4.358	0.100
581.000	-6.995	0.100
581.100	-2.474	0.100
581.200	-10.580	0.100
581.300	2.567	0.100
581.400	-7.149	0.100
581.500	-6.125	0.100
581.600	-14.073	0.100
581.700	-6.923	0.100
581.800	-2.046	0.100
581.900	-7.619	0.100
582.000	-8.954	0.100
582.100	-8.878	0.100
582.200	-3.947	0.100
582.300	1.820	0.100
582.400	-4.941	0.100
582.500	-13.470	0.100
582.600	-4.954	0.100
582.700	-14.064	0.100
582.800	-2.612	0.100
582.900	-0.731	0.100
583.000	-3.859	0.100
583.100	-4.373	0.100
583.200	-9.747	0.100
583.300	-5.471	0.100
583.400	0.470	0.100
583.500	-12.594	0.100
583.600	-9.051	0.100
583.700	-19.692	0.100
583.800	-9.502	0.100
583.900	0.740	0.100
584.000	-0.793	0.100
584.100	-12.223	0.100
584.200	-15.215	0.100
584.300	-3.720	0.100
584.400	-6.244	0.100
584.500	-13.358	0.100
584.600	-3.733	0.100
584.700	-2.252	0.100
584.800	1.067	0.100
584.900	-11.777	0.100
585.000	-9.419	0.100
585.100	-4.278	0.100
585.200	-7.739	0.100
585.300	-8.447	0.100
585.400	-8.303	0.100
585.500	-5.817	0.100
585.600	-6.645	0.100
585.700	-5.307	0.100
585.800	-8.040	0.100
585.900	-5.906	0.100
586.000	-3.383	0.100
586.100	-9.834	0.100
586.200	-19.298	0.100
586.300	-3.533	0.100
586.400	-2.342	0.100
586.500	-12.122	0.100
586.600	-11.460	0.100
586.700	0.948	0.100
586.800	-4.900	0.100
586.900	-8.310	0.100
587.000	-2.687	0.100
587.100	-3.961	0.100
587.200	-5.005	0.100
587.300	-9.046	0.100
587.400	-9.644	0.100
587.500	-4.043	0.100
587.600	-3.294	0.100
587.700	-3.260	0.100
587.800	-3.828	0.100
587.900	-8.619	0.100
588.000	-11.607	0.100
588.100	-8.648	0.100
588.200	-11.090	0.100
588.300	-11.147	0.100
588.400	-8.629	0.100
588.500	-22.922	0.100
588.600	-13.203	0.100
588.700	-6.626	0.100
588.800	-0.481	0.100
588.900	-19.338	0.100
589.000	-15.083	0.100
589.100	-1.443	0.100
589.200	-2.985	0.100
589.300	-0.786	0.100
589.400	-15.039	0.100
589.500	-3.751	0.100
589.600	-8.586	0.100
589.700	-4.475	0.100
589.800	-17.925	0.100
589.900	7.460	0.100
590.000	-11.412	0.100
590.100	-3.586	0.100
590.200	-4.949	0.100
590.300	-10.220	0.100
590.400	-7.719	0.100
590.500	-11.351	0.100
590.600	-10.600	0.100
590.700	0.442	0.100
590.800	-9.516	0.100
590.900	-12.298	0.100
591.000	-12.243	0.100
591.100	-8.432	0.100
591.200	-13.479	0.100
591.300	-3.696	0.100
591.400	-11.697	0.100
591.500	-15.832	0.100
591.600	-6.095	0.100
591.700	-7.549	0.100
591.800	-12.107	0.100
591.900	-3.600	0.100
592.000	0.301	0.100
592.100	-8.079	0.100
592.200	-13.254	0.100
592.300	-14.141	0.100
592.400	-6.910	0.100
592.500	-5.009	0.100
592.600	-5.801	0.100
592.700	-6.292	0.100
592.800	-3.030	0.100
592.900	-14.920	0.100
593.000	-15.350	0.100
593.100	-14.731	0.100
593.200	-12.228	0.100
593.300	-4.307	0.100
593.400	-5.513	0.100
593.500	-12.917	0.100
593.600	-15.127	0.100
593.700	0.393	0.100
593.800	-10.614	0.100
593.900	-11.666	0.100
594.000	-9.459	0.100
594.100	-12.778	0.100
594.200	-0.774	0.100
594.300	-13.467	0.100
594.400	-1.122	0.100
594.500	5.644	0.100
594.600	-10.411	0.100
594.700	-6.518	0.100
594.800	-7.272	0.100
594.900	-9.907	0.100
595.000	-1.076	0.100
595.100	-10.950	0.100
595.200	-15.104	0.100
595.300	-9.965	0.100
595.400	-10.000	0.100
595.500	-6.611	0.100
595.600	-7.247	0.100
595.700	-13.746	0.100
595.800	-5.847	0.100
595.900	-9.661	0.100
596.000	-9.179	0.100
596.100	-8.476	0.100
596.200	-8.797	0.100
596.300	-4.653	0.100
596.400	-10.953	0.100
596.500	-14.551	0.100
596.600	-14.018	0.100
596.700	-5.405	0.100
596.800	-3.937	0.100
596.900	-11.974	0.100
597.000	-8.772	0.100
597.100	-8.189	0.100
597.200	-7.382	0.100
597.300	-7.437	0.100
597.400	-3.853	0.100
597.500	-9.858	0.100
597.600	-11.782	0.100
597.700	-14.672	0.100
597.800	-12.375	0.100
597.900	-15.886	0.100
598.000	-8.432	0.100
598.100	-4.262	0.100
598.200	-6.739	0.100
598.300	-18.316	0.100
598.400	-7.245	0.100
598.500	-9.534	0.100
598.600	-5.592	0.100
598.700	-5.989	0.100
598.800	-5.664	0.100
598.900	-5.998	0.100
599.000	-16.496	0.100
599.100	-15.573	0.100
599.200	-7.452	0.100
599.300	-7.542	0.100
599.400	-8.891	0.100
599.500	-6.196	0.100
599.600	-7.864	0.100
599.700	-8.734	0.100
599.800	-14.001	0.100
599.900	-9.661	0.100
600.000	-5.927	0.100
600.100	-17.267	0.100
600.200	-15.612	0.100
600.300	-5.337	0.100
600.400	-6.246	0.100
600.500	-10.797	0.100
600.600	-5.062	0.100
600.700	3.750	0.100
600.800	-13.447	0.100
600.900	-11.447	0.100
601.000	-10.087	0.100
601.100	-5.124	0.100
601.200	-4.437	0.100
601.300	-9.570	0.100
601.400	-2.723	0.100
601.500	-19.933	0.100
601.600	-9.014	0.100
601.700	0.394	0.100
601.800	-12.981	0.100
601.900	-5.995	0.100
602.000	-9.988	0.100
602.100	-18.042	0.100
602.200	-7.447	0.100
602.300	-5.230	0.100
602.400	-11.316	0.100
602.500	-6.668	0.100
602.600	-13.389	0.100
602.700	-8.226	0.100
602.800	-14.164	0.100
602.900	-10.354	0.100
603.000	-6.228	0.100
603.100	-10.498	0.100
603.200	-10.495	0.100
603.300	-12.695	0.100
603.400	-18.268	0.100
603.500	-11.577	0.100
603.600	-8.009	0.100
603.700	-7.687	0.100
603.800	-8.023	0.100
603.900	-4.923	0.100
604.000	-8.122	0.100
604.100	-12.159	0.100
604.200	-16.064	0.100
604.300	-4.288	0.100
604.400	-3.985	0.100
604.500	-1.676	0.100
604.600	-17.624	0.100
604.700	-17.929	0.100
604.800	-11.716	0.100
604.900	1.543	0.100
605.000	-10.696	0.100
605.100	-8.265	0.100
605.200	-11.196	0.100
605.300	-9.295	0.100
605.400	-8.217	0.100
605.500	-6.975	0.100
605.600	-13.009	0.100
605.700	-20.790	0.100
605.800	-8.536	0.100
605.900	-7.246	0.100
606.000	-2.180	0.100
606.100	-1.482	0.100
606.200	-25.450	0.100
606.300	-4.786	0.100
606.400	-12.192	0.100
606.500	-6.450	0.100
606.600	-10.871	0.100
606.700	-13.367	0.100
606.800	-9.505	0.100
606.900	-8.000	0.100
607.000	-12.579	0.100
607.100	-5.604	0.100
607.200	-11.043	0.100
607.300	-2.726	0.100
607.400	-12.940	0.100
607.500	-6.868	0.100
607.600	-7.115	0.100
607.700	-14.878	0.100
607.800	-5.831	0.100
607.900	-14.469	0.100
608.000	-4.106	0.100
608.100	-6.836	0.100
608.200	-17.897	0.100
608.300	-15.173	0.100
608.400	-14.964	0.100
608.500	-6.301	0.100
608.600	-11.611	0.100
608.700	-12.170	0.100
608.800	-6.331	0.100
608.900	-9.375	0.100
609.000	-9.257	0.100
609.100	-9.618	0.100
609.200	-6.786	0.100
609.300	-8.375	0.100
609.400	-9.818	0.100
609.500	-13.715	0.100
609.600	-8.675	0.100
609.700	-9.243	0.100
609.800	-10.741	0.100
609.900	-13.622	0.100
610.000	-14.391	0.100
610.100	-5.727	0.100
610.200	-13.074	0.100
610.300	-13.879	0.100
610.400	-5.300	0.100
610.500	-7.355	0.100
610.600	-3.189	0.100
610.700	-4.749	0.100
610.800	-14.378	0.100
610.900	-9.001	0.100
611.000	-13.807	0.100
611.100	-7.168	0.100
611.200	-8.777	0.100
611.300	-11.621	0.100
611.400	-7.841	0.100
611.500	-0.738	0.100
611.600	-10.770	0.100
611.700	-14.047	0.100
611.800	-10.353	0.100
611.900	-18.511	0.100
612.000	-17.297	0.100
612.100	-10.629	0.100
612.200	-3.459	0.100
612.300	-8.316	0.100
612.400	0.672	0.100
612.500	-5.637	0.100
612.600	-12.063	0.100
612.700	-7.831	0.100
612.800	-14.268	0.100
612.900	-15.865	0.100
613.000	-9.940	0.100
613.100	-7.317	0.100
613.200	-11.188	0.100
613.300	-11.259	0.100
613.400	-10.344	0.100
613.500	-7.366	0.100
613.600	-11.705	0.100
613.700	-8.206	0.100
613.800	-21.120	0.100
613.900	-5.590	0.100
614.000	-8.990	0.100
614.100	-3.781	0.100
614.200	-7.539	0.100
614.300	-14.549	0.100
614.400	-9.791	0.100
614.500	-10.885	0.100
614.600	-7.158	0.100
614.700	-4.253	0.100
614.800	-7.442	0.100
614.900	-9.124	0.100
615.000	-17.060	0.100
615.100	-13.483	0.100
615.200	-11.010	0.100
615.300	-14.602	0.100
615.400	-19.415	0.100
615.500	-2.854	0.100
615.600	-13.256	0.100
615.700	-8.626	0.100
615.800	-6.909	0.100
615.900	-7.352	0.100
616.000	-6.205	0.100
616.100	-7.087	0.100
616.200	-13.488	0.100
616.300	-14.165	0.100
616.400	-10.709	0.100
616.500	-14.170	0.100
616.600	-8.465	0.100
616.700	-8.384	0.100
616.800	-11.751	0.100
616.900	-16.743	0.100
617.000	-14.039	0.100
617.100	-10.721	0.100
617.200	0.354	0.100
617.300	-0.231	0.100
617.400	-16.985	0.100
617.500	-21.673	0.100
617.600	-3.267	0.100
617.700	-12.409	0.100
617.800	-12.943	0.100
617.900	-4.583	0.100
618.000	-13.891	0.100
618.100	-6.806	0.100
618.200	-10.542	0.100
618.300	-9.396	0.100
618.400	-6.577	0.100
618.500	-12.447	0.100
618.600	-8.128	0.100
618.700	-15.789	0.100
618.800	-13.014	0.100
618.900	-11.849	0.100
619.000	-10.388	0.100
619.100	-4.368	0.100
619.200	-13.452	0.100
619.300	-21.984	0.100
619.400	-8.937	0.100
619.500	-0.763	0.100
619.600	-7.847	0.100
619.700	-4.416	0.100
619.800	-14.817	0.100
619.900	-15.312	0.100
620.000	-12.606	0.100
620.100	-15.941	0.100
620.200	-7.419	0.100
620.300	-6.538	0.100
620.400	-11.762	0.100
620.500	-14.289	0.100
620.600	-6.274	0.100
620.700	-10.907	0.100
620.800	-12.815	0.100
620.900	-10.197	0.100
621.000	-14.770	0.100
621.100	-11.875	0.100
621.200	-9.535	0.100
621.300	-10.747	0.100
621.400	-14.252	0.100
621.500	-8.890	0.100
621.600	-1.300	0.100
621.700	-12.402	0.100
621.800	-6.611	0.100
621.900	-8.529	0.100
622.000	-8.969	0.100
622.100	-15.211	0.100
622.200	-13.654	0.100
622.300	-9.254	0.100
622.400	-18.405	0.100
622.500	-14.655	0.100
622.600	-10.814	0.100
622.700	-14.636	0.100
622.800	-2.923	0.100
622.900	-8.604	0.100
623.000	-4.271	0.100
623.100	-17.221	0.100
623.200	-11.004	0.100
623.300	-4.248	0.100
623.400	-13.569	0.100
623.500	-15.027	0.100
623.600	-22.429	0.100
623.700	-16.197	0.100
623.800	-11.140	0.100
623.900	0.994	0.100
624.000	-10.458	0.100
624.100	-16.876	0.100
624.200	-16.528	0.100
624.300	-17.989	0.100
624.400	-6.599	0.100
624.500	-10.433	0.100
624.600	-8.798	0.100
624.700	-11.809	0.100
624.800	-9.280	0.100
624.900	-13.092	0.100
625.000	-14.025	0.100
625.100	-7.878	0.100
625.200	-3.041	0.100
625.300	-8.153	0.100
625.400	-13.672	0.100
625.500	-15.944	0.100
625.600	-13.659	0.100
625.700	-2.683	0.100
625.800	-24.253	0.100
625.900	-15.172	0.100
626.000	-14.151	0.100
626.100	-3.838	0.100
626.200	-8.052	0.100
626.300	-8.799	0.100
626.400	-15.932	0.100
626.500	-12.669	0.100
626.600	-12.097	0.100
626.700	-12.963	0.100
626.800	-7.812	0.100
626.900	-12.257	0.100
627.000	-12.348	0.100
627.100	-10.305	0.100
627.200	-3.720	0.100
627.300	-12.477	0.100
627.400	-8.112	0.100
627.500	-18.800	0.100
627.600	-6.775	0.100
627.700	-7.746	0.100
627.800	-13.683	0.100
627.900	-19.013	0.100
628.000	-8.164	0.100
628.100	-12.640	0.100
628.200	-10.418	0.100
628.300	-6.075	0.100
628.400	-6.711	0.100
628.500	-10.325	0.100
628.600	-9.433	0.100
628.700	-14.087	0.100
628.800	-18.006	0.100
628.900	-8.602	0.100
629.000	-7.581	0.100
629.100	-3.451	0.100
629.200	-13.333	0.100
629.300	-13.910	0.100
629.400	-2.284	0.100
629.500	-16.541	0.100
629.600	-14.911	0.100
629.700	-11.143	0.100
629.800	-13.881	0.100
629.900	-12.993	0.100
630.000	-10.708	0.100
630.100	-9.272	0.100
630.200	-11.021	0.100
630.300	-7.398	0.100
630.400	-18.023	0.100
630.500	-14.749	0.100
630.600	-5.002	0.100
630.700	-10.641	0.100
630.800	-13.092	0.100
630.900	-7.725	0.100
631.000	-14.479	0.100
631.100	-9.791	0.100
631.200	-3.630	0.100
631.300	-2.947	0.100
631.400	-3.609	0.100
631.500	-5.098	0.100
631.600	-4.858	0.100
631.700	-11.854	0.100
631.800	1.562	0.100
631.900	0.746	0.100
632.000	-10.037	0.100
632.100	-0.643	0.100
632.200	5.117	0.100
632.300	-2.214	0.100
632.400	3.686	0.100
632.500	-0.728	0.100
632.600	2.383	0.100
632.700	-5.530	0.100
632.800	-5.094	0.100
632.900	-0.359	0.100
633.000	6.505	0.100
633.100	-8.552	0.100
633.200	-3.188	0.100
633.300	-1.820	0.100
633.400	0.985	0.100
633.500	2.722	0.100
633.600	2.525	0.100
633.700	5.386	0.100
633.800	0.561	0.100
633.900	-12.652	0.100
634.000	-2.495	0.100
634.100	12.090	0.100
634.200	-2.239	0.100
634.300	4.659	0.100
634.400	4.933	0.100
634.500	-2.792	0.100
634.600	5.217	0.100
634.700	-3.887	0.100
634.800	0.667	0.100
634.900	-1.707	0.100
635.000	10.923	0.100
635.100	3.664	0.100
635.200	1.470	0.100
635.300	2.311	0.100
635.400	-0.901	0.100
635.500	1.178	0.100
635.600	-0.005	0.100
635.700	2.063	0.100
635.800	-4.652	0.100
635.900	-3.103	0.100
636.000	4.745	0.100
636.100	3.633	0.100
636.200	3.184	0.100
636.300	-5.436	0.100
636.400	7.555	0.100
636.500	1.325	0.100
636.600	-2.998	0.100
636.700	-3.716	0.100
636.800	-1.726	0.100
636.900	0.368	0.100
637.000	7.854	0.100
637.100	5.478	0.100
637.200	-6.096	0.100
637.300	-2.024	0.100
637.400	-1.094	0.100
637.500	0.281	0.100
637.600	3.421	0.100
637.700	-1.711	0.100
637.800	1.403	0.100
637.900	0.609	0.100
638.000	-9.043	0.100
638.100	12.902	0.100
638.200	-0.549	0.100
638.300	0.254	0.100
638.400	5.721	0.100
638.500	5.076	0.100
638.600	2.667	0.100
638.700	-5.812	0.100
638.800	-1.315	0.100
638.900	-5.664	0.100
639.000	-2.075	0.100
639.100	5.085	0.100
639.200	0.186	0.100
639.300	7.843	0.100
639.400	3.575	0.100
639.500	7.319	0.100
639.600	8.910	0.100
639.700	-5.798	0.100
639.800	0.005	0.100
639.900	4.567	0.100
640.000	13.059	0.100
640.100	-3.374	0.100
640.200	2.210	0.100
640.300	-1.125	0.100
640.400	6.782	0.100
640.500	6.861	0.100
640.600	3.914	0.100
640.700	4.782	0.100
640.800	0.180	0.100
640.900	-1.120	0.100
641.000	0.474	0.100
641.100	-5.372	0.100
641.200	5.796	0.100
641.300	9.625	0.100
641.400	-0.852	0.100
641.500	1.581	0.100
641.600	4.194	0.100
641.700	2.332	0.100
641.800	4.039	0.100
641.900	7.002	0.100
642.000	2.754	0.100
642.100	-1.491	0.100
642.200	5.320	0.100
642.300	8.204	0.100
642.400	2.883	0.100
642.500	1.521	0.100
642.600	5.809	0.100
642.700	8.531	0.100
642.800	5.073	0.100
642.900	2.027	0.100
643.000	1.269	0.100
643.100	5.139	0.100
643.200	2.113	0.100
643.300	8.701	0.100
643.400	6.968	0.100
643.500	-1.288	0.100
643.600	1.579	0.100
643.700	0.709	0.100
643.800	2.246	0.100
643.900	4.821	0.100
644.000	11.392	0.100
644.100	3.621	0.100
644.200	2.268	0.100
644.300	12.073	0.100
644.400	-2.344	0.100
644.500	3.311	0.100
644.600	10.100	0.100
644.700	4.787	0.100
644.800	10.413	0.100
644.900	6.486	0.100
645.000	6.520	0.100
645.100	13.718	0.100
645.200	-2.050	0.100
645.300	5.209	0.100
645.400	4.849	0.100
645.500	0.388	0.100
645.600	-3.783	0.100
645.700	11.520	0.100
645.800	18.129	0.100
645.900	6.800	0.100
646.000	7.659	0.100
646.100	7.178	0.100
646.200	3.892	0.100
646.300	7.244	0.100
646.400	0.829	0.100
646.500	1.855	0.100
646.600	4.887	0.100
646.700	9.044	0.100
646.800	13.011	0.100
646.900	6.040	0.100
647.000	6.016	0.100
647.100	5.880	0.100
647.200	11.430	0.100
647.300	-1.546	0.100
647.400	9.136	0.100
647.500	-1.371	0.100
647.600	8.801	0.100
647.700	11.001	0.100
647.800	7.594	0.100
647.900	-0.025	0.100
648.000	5.434	0.100
648.100	5.422	0.100
648.200	11.249	0.100
648.300	14.038	0.100
648.400	11.837	0.100
648.500	7.223	0.100
648.600	1.549	0.100
648.700	14.658	0.100
648.800	5.188	0.100
648.900	15.055	0.100
649.000	5.462	0.100
649.100	15.723	0.100
649.200	12.605	0.100
649.300	7.826	0.100
649.400	7.354	0.100
649.500	-4.367	0.100
649.600	15.741	0.100
649.700	9.821	0.100
649.800	4.213	0.100
649.900	10.231	0.100
650.000	5.828	0.100
650.100	5.493	0.100
650.200	8.774	0.100
650.300	2.969	0.100
650.400	1.222	0.100
650.500	12.399	0.100
650.600	21.116	0.100
650.700	8.387	0.100
650.800	9.404	0.100
650.900	14.630	0.100
651.000	4.505	0.100
651.100	21.318	0.100
651.200	3.352	0.100
651.300	6.759	0.100
651.400	18.099	0.100
651.500	9.080	0.100
651.600	10.580	0.100
651.700	11.633	0.100
651.800	3.158	0.100
651.900	9.101	0.100
652.000	8.888	0.100
652.100	7.547	0.100
652.200	10.337	0.100
652.300	8.484	0.100
652.400	21.201	0.100
652.500	12.186	0.100
652.600	13.472	0.100
652.700	1.294	0.100
652.800	21.077	0.100
652.900	15.258	0.100
653.000	14.129	0.100
653.100	18.606	0.100
653.200	16.224	0.100
653.300	14.059	0.100
653.400	14.787	0.100
653.500	9.171	0.100
653.600	6.996	0.100
653.700	13.908	0.100
653.800	14.700	0.100
653.900	21.442	0.100
654.000	4.242	0.100
654.100	12.405	0.100
654.200	10.725	0.100
654.300	18.063	0.100
654.400	19.137	0.100
654.500	2.239	0.100
654.600	13.758	0.100
654.700	13.632	0.100
654.800	1.957	0.100
654.900	13.688	0.100
655.000	12.016	0.100
655.100	22.075	0.100
655.200	12.496	0.100
655.300	8.149	0.100
655.400	16.715	0.100
655.500	9.185	0.100
655.600	9.050	0.100
655.700	12.526	0.100
655.800	3.718	0.100
655.900	26.676	0.100
656.000	8.691	0.100
656.100	16.193	0.100
656.200	14.069	0.100
656.300	10.690	0.100
656.400	7.890	0.100
656.500	9.993	0.100
656.600	3.316	0.100
656.700	18.273	0.100
656.800	6.788	0.100
656.900	10.993	0.100
657.000	14.361	0.100
657.100	22.285	0.100
657.200	11.532	0.100
657.300	13.815	0.100
657.400	16.125	0.100
657.500	14.934	0.100
657.600	12.805	0.100
657.700	15.396	0.100
657.800	18.363	0.100
657.900	15.365	0.100
658.000	24.832	0.100
658.100	14.725	0.100
658.200	15.267	0.100
658.300	21.001	0.100
658.400	10.173	0.100
658.500	13.248	0.100
658.600	8.579	0.100
658.700	12.568	0.100
658.800	19.386	0.100
658.900	16.448	0.100
659.000	10.896	0.100
659.100	4.895	0.100
659.200	16.600	0.100
659.300	16.646	0.100
659.400	17.188	0.100
659.500	17.013	0.100
659.600	12.769	0.100
659.700	16.069	0.100
659.800	15.802	0.100
659.900	19.634	0.100
660.000	16.245	0.100
660.100	8.849	0.100
660.200	19.299	0.100
660.300	15.801	0.100
660.400	13.507	0.100
660.500	8.227	0.100
660.600	21.267	0.100
660.700	8.461	0.100
660.800	19.185	0.100
660.900	20.383	0.100
661.000	11.547	0.100
661.100	22.602	0.100
661.200	8.652	0.100
661.300	15.378	0.100
661.400	28.205	0.100
661.500	26.652	0.100
661.600	20.030	0.100
661.700	16.447	0.100
661.800	16.405	0.100
661.900	14.782	0.100
662.000	23.080	0.100
662.100	11.425	0.100
662.200	19.237	0.100
662.300	15.005	0.100
662.400	20.700	0.100
662.500	14.527	0.100
662.600	19.119	0.100
662.700	19.985	0.100
662.800	9.959	0.100
662.900	19.421	0.100
663.000	22.806	0.100
663.100	14.963	0.100
663.200	11.209	0.100
663.300	14.880	0.100
663.400	22.434	0.100
663.500	14.686	0.100
663.600	22.340	0.100
663.700	20.468	0.100
663.800	16.157	0.100
663.900	17.565	0.100
664.000	13.695	0.100
664.100	17.094	0.100
664.200	21.897	0.100
664.300	22.606	0.100
664.400	17.212	0.100
664.500	22.586	0.100
664.600	10.338	0.100
664.700	21.534	0.100
664.800	18.431	0.100
664.900	19.562	0.100
665.000	19.980	0.100
665.100	14.061	0.100
665.200	22.946	0.100
665.300	22.074	0.100
665.400	22.925	0.100
665.500	21.077	0.100
665.600	16.971	0.100
665.700	14.335	0.100
665.800	12.746	0.100
665.900	28.539	0.100
666.000	13.866	0.100
666.100	17.716	0.100
666.200	17.596	0.100
666.300	19.737	0.100
666.400	20.015	0.100
666.500	19.639	0.100
666.600	15.726	0.100
666.700	24.506	0.100
666.800	22.001	0.100
666.900	17.958	0.100
667.000	26.267	0.100
667.100	22.085	0.100
667.200	7.617	0.100
667.300	21.371	0.100
667.400	20.690	0.100
667.500	32.998	0.100
667.600	18.503	0.100
667.700	17.243	0.100
667.800	21.839	0.100
667.900	15.515	0.100
668.000	19.242	0.100
668.100	16.061	0.100
668.200	25.514	0.100
668.300	18.283	0.100
668.400	26.065	0.100
668.500	13.096	0.100
668.600	12.565	0.100
668.700	17.078	0.100
668.800	27.111	0.100
668.900	19.466	0.100
669.000	26.700	0.100
669.100	27.572	0.100
669.200	17.162	0.100
669.300	23.793	0.100
669.400	10.404	0.100
669.500	27.431	0.100
669.600	12.701	0.100
669.700	19.606	0.100
669.800	32.080	0.100
669.900	22.214	0.100
670.000	21.383	0.100
670.100	13.034	0.100
670.200	14.759	0.100
670.300	31.996	0.100
670.400	22.767	0.100
670.500	18.713	0.100
670.600	16.955	0.100
670.700	18.989	0.100
670.800	17.735	0.100
670.900	22.559	0.100
671.000	20.126	0.100
671.100	24.742	0.100
671.200	21.648	0.100
671.300	18.902	0.100
671.400	23.261	0.100
671.500	21.864	0.100
671.600	21.629	0.100
671.700	21.351	0.100
671.800	16.382	0.100
671.900	22.836	0.100
672.000	24.434	0.100
672.100	14.022	0.100
672.200	27.280	0.100
672.300	22.510	0.100
672.400	10.406	0.100
672.500	37.957	0.100
672.600	28.203	0.100
672.700	11.278	0.100
672.800	17.585	0.100
672.900	18.095	0.100
673.000	23.920	0.100
673.100	19.903	0.100
673.200	17.236	0.100
673.300	25.637	0.100
673.400	23.557	0.100
673.500	24.398	0.100
673.600	25.754	0.100
673.700	16.996	0.100
673.800	18.872	0.100
673.900	19.853	0.100
674.000	17.080	0.100
674.100	20.231	0.100
674.200	22.573	0.100
674.300	27.996	0.100
674.400	21.358	0.100
674.500	25.009	0.100
674.600	24.285	0.100
674.700	14.174	0.100
674.800	22.717	0.100
674.900	22.473	0.100
675.000	24.751	0.100
675.100	28.328	0.100
675.200	15.628	0.100
675.300	23.673	0.100
675.400	24.803	0.100
675.500	25.453	0.100
675.600	17.847	0.100
675.700	17.001	0.100
675.800	28.740	0.100
675.900	18.940	0.100
676.000	18.933	0.100
676.100	23.894	0.100
676.200	21.847	0.100
676.300	30.212	0.100
676.400	22.117	0.100
676.500	21.136	0.100
676.600	24.338	0.100
676.700	21.321	0.100
676.800	21.218	0.100
676.900	25.835	0.100
677.000	15.272	0.100
677.100	21.844	0.100
677.200	23.196	0.100
677.300	18.604	0.100
677.400	17.728	0.100
677.500	23.052	0.100
677.600	18.477	0.100
677.700	26.749	0.100
677.800	27.902	0.100
677.900	13.233	0.100
678.000	32.422	0.100
678.100	17.356	0.100
678.200	23.370	0.100
678.300	23.945	0.100
678.400	22.785	0.100
678.500	19.160	0.100
678.600	16.724	0.100
678.700	28.144	0.100
678.800	16.238	0.100
678.900	25.135	0.100
679.000	22.627	0.100
679.100	26.253	0.100
679.200	21.987	0.100
679.300	22.119	0.100
679.400	22.114	0.100
679.500	27.248	0.100
679.600	21.857	0.100
679.700	18.206	0.100
679.800	30.571	0.100
679.900	23.061	0.100
680.000	22.265	0.100
680.100	18.974	0.100
680.200	15.475	0.100
680.300	19.360	0.100
680.400	10.699	0.100
680.500	26.036	0.100
680.600	22.419	0.100
680.700	31.436	0.100
680.800	23.939	0.100
680.900	20.636	0.100
681.000	18.550	0.100
681.100	19.700	0.100
681.200	16.650	0.100
681.300	36.827	0.100
681.400	22.671	0.100
681.500	21.461	0.100
681.600	21.744	0.100
681.700	19.105	0.100
681.800	33.590	0.100
681.900	21.960	0.100
682.000	26.538	0.100
682.100	27.611	0.100
682.200	18.217	0.100
682.300	18.890	0.100
682.400	29.770	0.100
682.500	30.943	0.100
682.600	28.813	0.100
682.700	20.035	0.100
682.800	25.391	0.100
682.900	18.479	0.100
683.000	18.779	0.100
683.100	24.654	0.100
683.200	21.143	0.100
683.300	26.239	0.100
683.400	19.678	0.100
683.500	25.526	0.100
683.600	24.339	0.100
683.700	30.678	0.100
683.800	19.711	0.100
683.900	27.334	0.100
684.000	16.213	0.100
684.100	17.000	0.100
684.200	18.959	0.100
684.300	35.284	0.100
684.400	27.064	0.100
684.500	9.203	0.100
684.600	19.479	0.100
684.700	24.866	0.100
684.800	33.007	0.100
684.900	26.931	0.100
685.000	27.402	0.100
685.100	20.950	0.100
685.200	22.123	0.100
685.300	26.556	0.100
685.400	24.401	0.100
685.500	9.623	0.100
685.600	15.087	0.100
685.700	30.569	0.100
685.800	27.353	0.100
685.900	27.351	0.100
686.000	27.474	0.100
686.100	18.425	0.100
686.200	25.528	0.100
686.300	27.000	0.100
686.400	32.387	0.100
686.500	18.318	0.100
686.600	24.586	0.100
686.700	19.907	0.100
686.800	22.848	0.100
686.900	18.460	0.100
687.000	31.690	0.100
687.100	26.509	0.100
687.200	21.732	0.100
687.300	30.420	0.100
687.400	18.251	0.100
687.500	26.575	0.100
687.600	28.983	0.100
687.700	28.703	0.100
687.800	19.215	0.100
687.900	24.629	0.100
688.000	17.484	0.100
688.100	23.861	0.100
688.200	23.632	0.100
688.300	33.458	0.100
688.400	33.172	0.100
688.500	20.095	0.100
688.600	16.445	0.100
688.700	19.913	0.100
688.800	32.454	0.100
688.900	30.648	0.100
689.000	21.310	0.100
689.100	23.147	0.100
689.200	22.159	0.100
689.300	24.291	0.100
689.400	19.111	0.100
689.500	26.894	0.100
689.600	26.565	0.100
689.700	17.397	0.100
689.800	23.219	0.100
689.900	26.621	0.100
690.000	29.488	0.100
690.100	21.571	0.100
690.200	28.368	0.100
690.300	25.136	0.100
690.400	28.197	0.100
690.500	13.715	0.100
690.600	22.803	0.100
690.700	25.961	0.100
690.800	25.765	0.100
690.900	21.631	0.100
691.000	16.742	0.100
691.100	11.814	0.100
691.200	24.642	0.100
691.300	18.196	0.100
691.400	16.063	0.100
691.500	21.867	0.100
691.600	18.682	0.100
691.700	16.584	0.100
691.800	16.253	0.100
691.900	11.851	0.100
692.000	5.321	0.100
692.100	14.738	0.100
692.200	13.399	0.100
692.300	12.416	0.100
692.400	16.439	0.100
692.500	16.266	0.100
692.600	6.426	0.100
692.700	17.440	0.100
692.800	8.731	0.100
692.900	9.177	0.100
693.000	9.960	0.100
693.100	14.562	0.100
693.200	12.749	0.100
693.300	9.883	0.100
693.400	8.454	0.100
693.500	10.822	0.100
693.600	14.111	0.100
693.700	1.125	0.100
693.800	7.456	0.100
693.900	9.224	0.100
694.000	9.134	0.100
694.100	14.399	0.100
694.200	8.745	0.100
694.300	10.621	0.100
694.400	11.185	0.100
694.500	7.629	0.100
694.600	15.031	0.100
694.700	6.804	0.100
694.800	6.395	0.100
694.900	6.454	0.100
695.000	8.096	0.100
695.100	10.558	0.100
695.200	9.312	0.100
695.300	10.102	0.100
695.400	14.938	0.100
695.500	-0.281	0.100
695.600	20.562	0.100
695.700	11.310	0.100
695.800	11.937	0.100
695.900	10.875	0.100
696.000	12.419	0.100
696.100	8.065	0.100
696.200	10.647	0.100
696.300	5.136	0.100
696.400	9.218	0.100
696.500	7.937	0.100
696.600	8.599	0.100
696.700	9.174	0.100
696.800	6.573	0.100
696.900	7.304	0.100
697.000	13.859	0.100
697.100	9.040	0.100
697.200	11.052	0.100
697.300	5.438	0.100
697.400	5.552	0.100
697.500	14.111	0.100
697.600	2.774	0.100
697.700	9.087	0.100
697.800	9.589	0.100
697.900	6.369	0.100
698.000	13.206	0.100
698.100	6.240	0.100
698.200	3.718	0.100
698.300	8.249	0.100
698.400	1.289	0.100
698.500	13.645	0.100
698.600	9.069	0.100
698.700	15.172	0.100
698.800	12.072	0.100
698.900	13.444	0.100
699.000	6.295	0.100
699.100	8.397	0.100
699.200	8.112	0.100
699.300	12.029	0.100
699.400	-3.113	0.100
699.500	10.587	0.100
699.600	4.711	0.100
699.700	4.239	0.100
699.800	7.110	0.100
699.900	6.013	0.100
700.000	9.643	0.100
700.100	9.283	0.100
700.200	12.050	0.100
700.300	6.295	0.100
700.400	2.413	0.100
700.500	4.579	0.100
700.600	9.805	0.100
700.700	14.310	0.100
700.800	5.863	0.100
700.900	-4.393	0.100
701.000	8.784	0.100
701.100	4.673	0.100
701.200	7.790	0.100
701.300	11.768	0.100
701.400	6.584	0.100
701.500	8.959	0.100
701.600	8.909	0.100
701.700	9.382	0.100
701.800	4.641	0.100
701.900	5.702	0.100
702.000	9.280	0.100
702.100	14.690	0.100
702.200	7.861	0.100
702.300	11.312	0.100
702.400	5.814	0.100
702.500	7.771	0.100
702.600	0.860	0.100
702.700	10.394	0.100
702.800	7.844	0.100
702.900	3.479	0.100
703.000	6.200	0.100
703.100	11.720	0.100
703.200	8.827	0.100
703.300	8.300	0.100
703.400	0.701	0.100
703.500	9.536	0.100
703.600	7.475	0.100
703.700	5.455	0.100
703.800	3.894	0.100
703.900	3.156	0.100
704.000	3.529	0.100
704.100	10.786	0.100
704.200	8.239	0.100
704.300	5.842	0.100
704.400	0.895	0.100
704.500	3.431	0.100
704.600	6.578	0.100
704.700	7.619	0.100
704.800	6.022	0.100
704.900	7.381	0.100
705.000	9.692	0.100
705.100	7.906	0.100
705.200	3.368	0.100
705.300	6.922	0.100
705.400	3.672	0.100
705.500	1.360	0.100
705.600	2.111	0.100
705.700	3.228	0.100
705.800	-0.049	0.100
705.900	-5.383	0.100
706.000	5.528	0.100
706.100	4.963	0.100
706.200	7.947	0.100
706.300	8.486	0.100
706.400	-1.093	0.100
706.500	6.711	0.100
706.600	4.781	0.100
706.700	-0.438	0.100
706.800	-6.201	0.100
706.900	4.850	0.100
707.000	8.087	0.100
707.100	0.176	0.100
707.200	-1.510	0.100
707.300	10.951	0.100
707.400	12.633	0.100
707.500	-1.291	0.100
707.600	9.045	0.100
707.700	4.179	0.100
707.800	10.912	0.100
707.900	7.011	0.100
708.000	-3.262	0.100
708.100	3.642	0.100
708.200	-6.292	0.100
708.300	3.814	0.100
708.400	-1.183	0.100
708.500	2.208	0.100
708.600	11.026	0.100
708.700	8.784	0.100
708.800	-1.400	0.100
708.900	5.071	0.100
709.000	2.249	0.100
709.100	2.616	0.100
709.200	3.237	0.100
709.300	7.252	0.100
709.400	4.060	0.100
709.500	-2.174	0.100
709.600	1.470	0.100
709.700	6.856	0.100
709.800	6.446	0.100
709.900	7.450	0.100
710.000	1.328	0.100
710.100	-0.401	0.100
710.200	3.606	0.100
710.300	1.183	0.100
710.400	12.265	0.100
710.500	-4.732	0.100
710.600	4.254	0.100
710.700	4.836	0.100
710.800	7.769	0.100
710.900	8.105	0.100
711.000	-3.324	0.100
711.100	7.762	0.100
711.200	5.936	0.100
711.300	3.840	0.100
711.400	0.509	0.100
711.500	-3.918	0.100
711.600	4.462	0.100
711.700	4.701	0.100
711.800	-2.693	0.100
711.900	1.412	0.100
712.000	4.998	0.100
712.100	3.375	0.100
712.200	-0.115	0.100
712.300	6.375	0.100
712.400	0.241	0.100
712.500	3.827	0.100
712.600	-1.802	0.100
712.700	-3.175	0.100
712.800	-6.493	0.100
712.900	0.573	0.100
713.000	0.703	0.100
713.100	6.277	0.100
713.200	5.845	0.100
713.300	4.621	0.100
713.400	4.741	0.100
713.500	5.491	0.100
713.600	-6.648	0.100
713.700	1.900	0.100
713.800	4.056	0.100
713.900	-0.006	0.100
714.000	0.727	0.100
714.100	-2.990	0.100
714.200	-0.291	0.100
714.300	-5.774	0.100
714.400	4.017	0.100
714.500	-0.668	0.100
714.600	7.933	0.100
714.700	-4.152	0.100
714.800	-4.103	0.100
714.900	-0.088	0.100
715.000	-5.310	0.100
715.100	0.256	0.100
715.200	2.490	0.100
715.300	-0.996	0.100
715.400	2.314	0.100
715.500	-5.695	0.100
715.600	-1.563	0.100
715.700	-4.333	0.100
715.800	0.241	0.100
715.900	-0.642	0.100
716.000	-0.816	0.100
716.100	4.438	0.100
716.200	-4.340	0.100
716.300	1.547	0.100
716.400	-4.572	0.100
716.500	0.112	0.100
716.600	-11.365	0.100
716.700	-2.802	0.100
716.800	0.122	0.100
716.900	-9.804	0.100
717.000	-3.777	0.100
717.100	1.178	0.100
717.200	-0.351	0.100
717.300	-12.233	0.100
717.400	-6.208	0.100
717.500	0.180	0.100
717.600	-3.656	0.100
717.700	1.540	0.100
717.800	-1.973	0.100
717.900	3.228	0.100
718.000	-1.757	0.100
718.100	-0.867	0.100
718.200	-3.347	0.100
718.300	-3.860	0.100
718.400	-2.941	0.100
718.500	4.813	0.100
718.600	2.092	0.100
718.700	0.033	0.100
718.800	-4.226	0.100
718.900	-5.076	0.100
719.000	-9.411	0.100
719.100	-1.130	0.100
719.200	-7.435	0.100
719.300	-5.356	0.100
719.400	-2.160	0.100
719.500	-0.504	0.100
719.600	-4.954	0.100
719.700	-7.160	0.100
719.800	3.542	0.100
719.900	-3.010	0.100
720.000	-3.992	0.100
720.100	1.594	0.100
720.200	0.226	0.100
720.300	-1.203	0.100
720.400	1.594	0.100
720.500	-1.868	0.100
720.600	-1.449	0.100
720.700	-4.151	0.100
720.800	-3.404	0.100
720.900	0.695	0.100
721.000	-5.906	0.100
721.100	4.762	0.100
721.200	-7.372	0.100
721.300	-0.900	0.100
721.400	-3.854	0.100
721.500	2.957	0.100
721.600	-12.565	0.100
721.700	1.440	0.100
721.800	-1.424	0.100
721.900	-5.608	0.100
722.000	-11.958	0.100
722.100	-9.822	0.100
722.200	-10.911	0.100
722.300	2.838	0.100
722.400	-4.679	0.100
722.500	-3.471	0.100
722.600	3.263	0.100
722.700	-6.329	0.100
722.800	2.221	0.100
722.900	-4.596	0.100
723.000	-7.133	0.100
723.100	-0.181	0.100
723.200	-10.087	0.100
723.300	2.920	0.100
723.400	-9.435	0.100
723.500	-2.358	0.100
723.600	-0.643	0.100
723.700	-1.363	0.100
723.800	-6.957	0.100
723.900	-2.950	0.100
724.000	-7.988	0.100
724.100	2.367	0.100
724.200	-7.918	0.100
724.300	-1.051	0.100
724.400	-3.658	0.100
724.500	-8.698	0.100
724.600	-4.175	0.100
724.700	1.626	0.100
724.800	-8.122	0.100
724.900	-6.673	0.100
725.000	-4.848	0.100
725.100	-1.637	0.100
725.200	-7.922	0.100
725.300	-8.963	0.100
725.400	-6.634	0.100
725.500	-7.174	0.100
725.600	-2.483	0.100
725.700	-5.170	0.100
725.800	-4.437	0.100
725.900	-7.120	0.100
726.000	2.632	0.100
726.100	-0.011	0.100
726.200	-12.957	0.100
726.300	-0.670	0.100
726.400	-7.783	0.100
726.500	-5.536	0.100
726.600	-4.674	0.100
726.700	-2.921	0.100
726.800	1.094	0.100
726.900	-8.901	0.100
727.000	-0.675	0.100
727.100	-10.312	0.100
727.200	-3.492	0.100
727.300	-11.818	0.100
727.400	-1.318	0.100
727.500	-5.623	0.100
727.600	-3.351	0.100
727.700	-10.661	0.100
727.800	-4.458	0.100
727.900	-0.775	0.100
728.000	-7.412	0.100
728.100	0.697	0.100
728.200	-6.551	0.100
728.300	-10.565	0.100
728.400	-4.121	0.100
728.500	-1.804	0.100
728.600	-5.059	0.100
728.700	2.151	0.100
728.800	-11.751	0.100
728.900	-8.211	0.100
729.000	-5.805	0.100
729.100	-6.655	0.100
729.200	-4.590	0.100
729.300	-4.023	0.100
729.400	-5.325	0.100
729.500	-13.971	0.100
729.600	-2.705	0.100
729.700	-2.129	0.100
729.800	-5.918	0.100
729.900	-10.133	0.100
730.000	-0.894	0.100
730.100	0.549	0.100
730.200	-1.246	0.100
730.300	-20.336	0.100
730.400	-3.496	0.100
730.500	-6.705	0.100
730.600	-3.554	0.100
730.700	-11.313	0.100
730.800	-1.643	0.100
730.900	-5.255	0.100
731.000	-3.469	0.100
731.100	-15.015	0.100
731.200	-12.478	0.100
731.300	-14.802	0.100
731.400	-1.394	0.100
731.500	-4.357	0.100
731.600	3.425	0.100
731.700	-10.685	0.100
731.800	-13.738	0.100
731.900	-15.213	0.100
732.000	-6.558	0.100
732.100	-2.664	0.100
732.200	-4.657	0.100
732.300	-4.169	0.100
732.400	-6.667	0.100
732.500	-17.934	0.100
732.600	-12.745	0.100
732.700	-3.127	0.100
732.800	2.003	0.100
732.900	-10.614	0.100
733.000	-1.670	0.100
733.100	-7.926	0.100
733.200	-11.811	0.100
733.300	-3.034	0.100
733.400	-8.031	0.100
733.500	-5.261	0.100
733.600	-12.059	0.100
733.700	-7.845	0.100
733.800	-6.838	0.100
733.900	-11.416	0.100
734.000	-4.704	0.100
734.100	-5.287	0.100
734.200	-7.117	0.100
734.300	-10.489	0.100
734.400	-9.593	0.100
734.500	-3.222	0.100
734.600	-9.832	0.100
734.700	-7.671	0.100
734.800	-3.408	0.100
734.900	-8.208	0.100
735.000	-12.846	0.100
735.100	-7.259	0.100
735.200	-7.165	0.100
735.300	-5.005	0.100
735.400	-6.378	0.100
735.500	-11.204	0.100
735.600	-9.236	0.100
735.700	-7.047	0.100
735.800	-5.744	0.100
735.900	-7.836	0.100
736.000	-3.337	0.100
736.100	-1.638	0.100
736.200	-19.602	0.100
736.300	-2.677	0.100
736.400	-9.270	0.100
736.500	-11.937	0.100
736.600	-3.061	0.100
736.700	-2.410	0.100
736.800	-12.593	0.100
736.900	-2.137	0.100
737.000	-13.147	0.100
737.100	-4.937	0.100
737.200	-10.219	0.100
737.300	-4.508	0.100
737.400	-3.307	0.100
737.500	-9.774	0.100
737.600	-16.648	0.100
737.700	-5.359	0.100
737.800	-5.295	0.100
737.900	-14.082	0.100
738.000	2.244	0.100
738.100	-15.140	0.100
738.200	-12.927	0.100
738.300	-7.702	0.100
738.400	-6.736	0.100
738.500	0.029	0.100
738.600	-7.635	0.100
738.700	-13.391	0.100
738.800	-17.862	0.100
738.900	-9.261	0.100
739.000	-9.035	0.100
739.100	-9.192	0.100
739.200	-3.641	0.100
739.300	-13.986	0.100
739.400	-6.869	0.100
739.500	-11.212	0.100
739.600	-14.243	0.100
739.700	-9.909	0.100
739.800	-3.063	0.100
739.900	-4.382	0.100
740.000	-9.368	0.100
740.100	-7.229	0.100
740.200	-7.927	0.100
740.300	-10.654	0.100
740.400	-5.594	0.100
740.500	-12.692	0.100
740.600	-5.960	0.100
740.700	-7.818	0.100
740.800	-8.075	0.100
740.900	-7.589	0.100
741.000	-8.195	0.100
741.100	-8.085	0.100
741.200	-4.785	0.100
741.300	-2.942	0.100
741.400	-9.712	0.100
741.500	-15.230	0.100
741.600	-5.420	0.100
741.700	-9.014	0.100
741.800	-13.880	0.100
741.900	-14.938	0.100
742.000	-10.305	0.100
742.100	-13.298	0.100
742.200	-11.853	0.100
742.300	0.403	0.100
742.400	-14.779	0.100
742.500	-2.052	0.100
742.600	-20.844	0.100
742.700	-0.426	0.100
742.800	-11.154	0.100
742.900	-9.065	0.100
743.000	-10.351	0.100
743.100	-7.542	0.100
743.200	-7.843	0.100
743.300	-12.794	0.100
743.400	-2.999	0.100
743.500	-6.272	0.100
743.600	-11.283	0.100
743.700	-9.268	0.100
743.800	-11.789	0.100
743.900	-12.911	0.100
744.000	-9.218	0.100
744.100	-15.203	0.100
744.200	-10.101	0.100
744.300	-1.585	0.100
744.400	-15.144	0.100
744.500	-11.185	0.100
744.600	-10.225	0.100
744.700	-9.795	0.100
744.800	-11.995	0.100
744.900	-14.597	0.100
745.000	-11.354	0.100
745.100	-9.962	0.100
745.200	-9.608	0.100
745.300	-9.541	0.100
745.400	-4.249	0.100
745.500	-10.013	0.100
745.600	-3.241	0.100
745.700	-12.218	0.100
745.800	-5.029	0.100
745.900	-1.241	0.100
746.000	-13.737	0.100
746.100	-16.419	0.100
746.200	-6.343	0.100
746.300	-12.509	0.100
746.400	-8.003	0.100
746.500	-11.538	0.100
746.600	-15.199	0.100
746.700	-8.761	0.100
746.800	-3.855	0.100
746.900	-11.416	0.100
747.000	-11.372	0.100
747.100	-15.311	0.100
747.200	-14.959	0.100
747.300	-8.289	0.100
747.400	-4.143	0.100
747.500	-8.463	0.100
747.600	-15.110	0.100
747.700	-4.242	0.100
747.800	-6.388	0.100
747.900	-6.975	0.100
748.000	-12.548	0.100
748.100	-6.948	0.100
748.200	-12.519	0.100
748.300	-9.137	0.100
748.400	-8.751	0.100
748.500	-5.495	0.100
748.600	-10.671	0.100
748.700	-17.555	0.100
748.800	-9.226	0.100
748.900	-16.810	0.100
749.000	-6.458	0.100
749.100	-2.545	0.100
749.200	-6.754	0.100
749.300	-16.626	0.100
749.400	-8.563	0.100
749.500	-10.976	0.100
749.600	-13.757	0.100
749.700	-9.520	0.100
749.800	-8.679	0.100
749.900	-11.175	0.100
750.000	-8.423	0.100
750.100	-14.976	0.100
750.200	-15.684	0.100
750.300	-12.124	0.100
750.400	-10.811	0.100
750.500	-3.071	0.100
750.600	-13.695	0.100
750.700	-11.412	0.100
750.800	-7.818	0.100
750.900	-15.968	0.100
751.000	-11.118	0.100
751.100	-9.303	0.100
751.200	-1.300	0.100
751.300	-9.450	0.100
751.400	-8.282	0.100
751.500	-6.931	0.100
751.600	-12.342	0.100
751.700	-9.655	0.100
751.800	-9.939	0.100
751.900	-15.391	0.100
752.000	-16.455	0.100
752.100	-13.334	0.100
752.200	-9.140	0.100
752.300	-9.128	0.100
752.400	-5.924	0.100
752.500	-11.578	0.100
752.600	-4.845	0.100
752.700	-6.911	0.100
752.800	-8.054	0.100
752.900	-14.088	0.100
753.000	-7.677	0.100
753.100	-14.726	0.100
753.200	-13.234	0.100
753.300	-8.472	0.100
753.400	-4.066	0.100
753.500	-12.000	0.100
753.600	-11.522	0.100
753.700	-15.020	0.100
753.800	-6.166	0.100
753.900	-5.163	0.100
754.000	-14.141	0.100
754.100	-10.382	0.100
754.200	-13.638	0.100
754.300	-4.401	0.100
754.400	-5.946	0.100
754.500	-15.275	0.100
754.600	-11.858	0.100
754.700	-3.782	0.100
754.800	-8.672	0.100
754.900	-13.384	0.100
755.000	-4.578	0.100
755.100	-7.425	0.100
755.200	-9.379	0.100
755.300	-13.737	0.100
755.400	-6.252	0.100
755.500	-12.126	0.100
755.600	-8.287	0.100
755.700	-6.819	0.100
755.800	-10.586	0.100
755.900	-15.203	0.100
756.000	-3.755	0.100
756.100	-11.779	0.100
756.200	-8.844	0.100
756.300	-2.484	0.100
756.400	-5.330	0.100
756.500	-12.679	0.100
756.600	-16.076	0.100
756.700	-5.859	0.100
756.800	-9.115	0.100
756.900	-7.449	0.100
757.000	-8.993	0.100
757.100	-12.995	0.100
757.200	-7.162	0.100
757.300	-10.120	0.100
757.400	-11.808	0.100
757.500	-4.642	0.100
757.600	-12.991	0.100
757.700	-13.820	0.100
757.800	-11.492	0.100
757.900	-7.975	0.100
758.000	-9.897	0.100
758.100	-6.727	0.100
758.200	-1.814	0.100
758.300	-12.440	0.100
758.400	-9.160	0.100
758.500	-12.740	0.100
758.600	-14.984	0.100
758.700	-11.328	0.100
758.800	-11.651	0.100
758.900	-4.134	0.100
759.000	-13.330	0.100
759.100	-6.474	0.100
759.200	-17.395	0.100
759.300	-6.429	0.100
759.400	-7.139	0.100
759.500	-11.633	0.100
759.600	-9.054	0.100
759.700	-15.933	0.100
759.800	-11.155	0.100
759.900	-6.198	0.100
760.000	-13.499	0.100
760.100	-8.278	0.100
760.200	-9.282	0.100
760.300	-11.878	0.100
760.400	-9.082	0.100
760.500	-15.003	0.100
760.600	-15.236	0.100
760.700	-11.654	0.100
760.800	-7.984	0.100
760.900	-18.349	0.100
761.000	-5.141	0.100
761.100	-8.047	0.100
761.200	-16.363	0.100
761.300	-10.930	0.100
761.400	-12.207	0.100
761.500	-13.668	0.100
761.600	-7.535	0.100
761.700	-9.598	0.100
761.800	-12.140	0.100
761.900	-16.358	0.100
762.000	-6.099	0.100
762.100	-14.213	0.100
762.200	-10.510	0.100
762.300	-11.875	0.100
762.400	-12.876	0.100
762.500	-13.147	0.100
762.600	-9.646	0.100
762.700	-12.683	0.100
762.800	-11.951	0.100
762.900	-11.674	0.100
763.000	-13.384	0.100
763.100	-19.321	0.100
763.200	-15.370	0.100
763.300	-2.456	0.100
763.400	-0.115	0.100
763.500	-18.674	0.100
763.600	-12.356	0.100
763.700	-6.187	0.100
763.800	-6.916	0.100
763.900	-13.150	0.100
764.000	-13.804	0.100
764.100	-10.155	0.100
764.200	-8.984	0.100
764.300	-10.606	0.100
764.400	-5.022	0.100
764.500	-7.388	0.100
764.600	-7.818	0.100
764.700	-12.857	0.100
764.800	-19.525	0.100
764.900	-9.489	0.100
765.000	-12.993	0.100
765.100	-10.056	0.100
765.200	-3.653	0.100
765.300	-20.643	0.100
765.400	-9.267	0.100
765.500	-9.151	0.100
765.600	-11.616	0.100
765.700	-16.327	0.100
765.800	-4.519	0.100
765.900	-4.907	0.100
766.000	-8.354	0.100
766.100	-13.787	0.100
766.200	-14.785	0.100
766.300	-11.052	0.100
766.400	-13.492	0.100
766.500	-13.451	0.100
766.600	-9.818	0.100
766.700	-9.884	0.100
766.800	-15.408	0.100
766.900	-14.841	0.100
767.000	-13.149	0.100
767.100	-11.789	0.100
767.200	-4.071	0.100
767.300	-11.308	0.100
767.400	-15.730	0.100
767.500	-10.908	0.100
767.600	-16.725	0.100
767.700	-15.145	0.100
767.800	-12.720	0.100
767.900	-11.460	0.100
768.000	-12.289	0.100
768.100	-11.739	0.100
768.200	-14.043	0.100
768.300	-8.320	0.100
768.400	-11.053	0.100
768.500	-5.118	0.100
768.600	-7.129	0.100
768.700	-8.656	0.100
768.800	-19.856	0.100
768.900	-10.067	0.100
769.000	-1.772	0.100
769.100	-8.704	0.100
769.200	-11.830	0.100
769.300	-17.035	0.100
769.400	-13.087	0.100
769.500	-5.024	0.100
769.600	-11.256	0.100
769.700	-16.327	0.100
769.800	-25.080	0.100
769.900	-10.209	0.100
770.000	-6.553	0.100
770.100	-7.717	0.100
770.200	-6.145	0.100
770.300	-11.327	0.100
770.400	-6.419	0.100
770.500	-15.016	0.100
770.600	-7.429	0.100
770.700	-6.592	0.100
770.800	-20.786	0.100
770.900	-14.532	0.100
771.000	-19.457	0.100
771.100	-5.349	0.100
771.200	-16.550	0.100
771.300	-15.470	0.100
771.400	-10.198	0.100
771.500	-5.584	0.100
771.600	-4.927	0.100
771.700	-12.846	0.100
771.800	-15.932	0.100
771.900	-23.571	0.100
772.000	-6.478	0.100
772.100	-6.016	0.100
772.200	-15.271	0.100
772.300	-9.915	0.100
772.400	-10.280	0.100
772.500	-15.110	0.100
772.600	-13.906	0.100
772.700	-2.774	0.100
772.800	-7.198	0.100
772.900	-19.975	0.100
773.000	-13.124	0.100
773.100	-4.153	0.100
773.200	-15.376	0.100
773.300	-10.615	0.100
773.400	-11.691	0.100
773.500	-10.069	0.100
773.600	-9.811	0.100
773.700	-20.308	0.100
773.800	-10.467	0.100
773.900	-12.108	0.100
774.000	-19.259	0.100
774.100	-5.474	0.100
774.200	-7.174	0.100
774.300	-6.362	0.100
774.400	-10.444	0.100
774.500	-15.445	0.100
774.600	-11.818	0.100
774.700	-11.186	0.100
774.800	-6.797	0.100
774.900	-9.180	0.100
775.000	-8.938	0.100
775.100	-15.063	0.100
775.200	-13.014	0.100
775.300	-12.424	0.100
775.400	-12.483	0.100
775.500	-18.478	0.100
775.600	-9.211	0.100
775.700	-7.737	0.100
775.800	-9.584	0.100
775.900	-22.233	0.100
776.000	-8.248	0.100
776.100	-10.595	0.100
776.200	-14.159	0.100
776.300	-3.277	0.100
776.400	-24.818	0.100
776.500	-15.410	0.100
776.600	-9.025	0.100
776.700	-3.902	0.100
776.800	-15.111	0.100
776.900	-11.596	0.100
777.000	-11.310	0.100
777.100	-23.648	0.100
777.200	-4.418	0.100
777.300	-14.019	0.100
777.400	-10.167	0.100
777.500	-10.922	0.100
777.600	-9.128	0.100
777.700	-17.765	0.100
777.800	-10.711	0.100
777.900	-16.885	0.100
778.000	-0.063	0.100
778.100	-11.450	0.100
778.200	-14.170	0.100
778.300	-13.244	0.100
778.400	-6.998	0.100
778.500	-21.760	0.100
778.600	-5.595	0.100
778.700	-5.844	0.100
778.800	-12.453	0.100
778.900	-12.517	0.100
779.000	-18.625	0.100
779.100	-3.574	0.100
779.200	-12.413	0.100
779.300	-12.760	0.100
779.400	-9.419	0.100
779.500	-8.157	0.100
779.600	-11.817	0.100
779.700	-0.701	0.100
779.800	-17.200	0.100
779.900	-4.210	0.100
780.000	-12.055	0.100
780.100	-14.024	0.100
780.200	-18.313	0.100
780.300	-11.874	0.100
780.400	-10.771	0.100
780.500	-12.617	0.100
780.600	-10.921	0.100
780.700	-11.358	0.100
780.800	3.837	0.100
780.900	-13.518	0.100
781.000	-14.397	0.100
781.100	-8.554	0.100
781.200	-12.343	0.100
781.300	-6.605	0.100
781.400	-1.654	0.100
781.500	-7.233	0.100
781.600	4.808	0.100
781.700	-3.104	0.100
781.800	-3.850	0.100
781.900	-13.740	0.100
782.000	-0.423	0.100
782.100	0.393	0.100
782.200	-12.906	0.100
782.300	3.609	0.100
782.400	0.946	0.100
782.500	-5.364	0.100
782.600	-1.513	0.100
782.700	8.531	0.100
782.800	1.382	0.100
782.900	-8.053	0.100
783.000	-5.038	0.100
783.100	-2.612	0.100
783.200	-1.140	0.100
783.300	2.594	0.100
783.400	0.135	0.100
783.500	-10.722	0.100
783.600	0.582	0.100
783.700	4.883	0.100
783.800	-2.311	0.100
783.900	-3.184	0.100
784.000	2.246	0.100
784.100	0.933	0.100
784.200	-2.048	0.100
784.300	7.080	0.100
784.400	0.865	0.100
784.500	-0.754	0.100
784.600	-6.117	0.100
784.700	-2.521	0.100
784.800	-3.195	0.100
784.900	3.072	0.100
785.000	-0.351	0.100
785.100	5.657	0.100
785.200	0.148	0.100
785.300	2.554	0.100
785.400	-8.031	0.100
785.500	-3.111	0.100
785.600	4.079	0.100
785.700	5.684	0.100
785.800	-5.697	0.100
785.900	-2.602	0.100
786.000	3.204	0.100
786.100	0.557	0.100
786.200	-5.176	0.100
786.300	-0.644	0.100
786.400	-1.806	0.100
786.500	-2.324	0.100
786.600	-6.367	0.100
786.700	2.242	0.100
786.800	-1.163	0.100
786.900	4.610	0.100
787.000	-0.080	0.100
787.100	-0.971	0.100
787.200	-8.913	0.100
787.300	1.164	0.100
787.400	9.634	0.100
787.500	-8.080	0.100
787.600	3.632	0.100
787.700	4.658	0.100
787.800	-0.918	0.100
787.900	3.986	0.100
788.000	7.282	0.100
788.100	1.894	0.100
788.200	1.184	0.100
788.300	-1.331	0.100
788.400	-0.015	0.100
788.500	2.267	0.100
788.600	1.287	0.100
788.700	0.809	0.100
788.800	1.170	0.100
788.900	-2.860	0.100
789.000	-1.610	0.100
789.100	-0.118	0.100
789.200	1.501	0.100
789.300	7.962	0.100
789.400	7.790	0.100
789.500	-5.552	0.100
789.600	-2.340	0.100
789.700	-2.900	0.100
789.800	-6.543	0.100
789.900	2.306	0.100
790.000	2.350	0.100
790.100	5.803	0.100
790.200	4.690	0.100
790.300	9.559	0.100
790.400	-9.511	0.100
790.500	-4.043	0.100
790.600	5.128	0.100
790.700	10.664	0.100
790.800	-3.124	0.100
790.900	1.200	0.100
791.000	5.678	0.100
791.100	8.100	0.100
791.200	6.454	0.100
791.300	1.755	0.100
791.400	9.295	0.100
791.500	3.676	0.100
791.600	2.827	0.100
791.700	0.162	0.100
791.800	5.583	0.100
791.900	6.089	0.100
792.000	7.848	0.100
792.100	-4.301	0.100
792.200	3.072	0.100
792.300	8.457	0.100
792.400	3.836	0.100
792.500	7.613	0.100
792.600	5.162	0.100
792.700	0.820	0.100
792.800	2.927	0.100
792.900	5.210	0.100
793.000	3.949	0.100
793.100	6.961	0.100
793.200	7.210	0.100
793.300	-3.157	0.100
793.400	6.432	0.100
793.500	11.343	0.100
793.600	4.164	0.100
793.700	1.269	0.100
793.800	0.687	0.100
793.900	2.912	0.100
794.000	0.611	0.100
794.100	9.323	0.100
794.200	8.074	0.100
794.300	2.928	0.100
794.400	0.700	0.100
794.500	7.182	0.100
794.600	6.854	0.100
794.700	-13.594	0.100
794.800	4.191	0.100
794.900	2.885	0.100
795.000	4.881	0.100
795.100	6.268	0.100
795.200	3.696	0.100
795.300	12.412	0.100
795.400	13.434	0.100
795.500	5.838	0.100
795.600	15.350	0.100
795.700	10.126	0.100
795.800	0.659	0.100
795.900	1.177	0.100
796.000	-2.830	0.100
796.100	5.471	0.100
796.200	10.023	0.100
796.300	10.930	0.100
796.400	-1.363	0.100
796.500	0.956	0.100
796.600	3.160	0.100
796.700	5.127	0.100
796.800	8.690	0.100
796.900	15.368	0.100
797.000	9.545	0.100
797.100	-0.509	0.100
797.200	3.697	0.100
797.300	8.935	0.100
797.400	11.980	0.100
797.500	12.284	0.100
797.600	11.767	0.100
797.700	4.910	0.100
797.800	7.416	0.100
797.900	7.062	0.100
798.000	5.849	0.100
798.100	19.214	0.100
798.200	-4.997	0.100
798.300	4.402	0.100
798.400	9.726	0.100
798.500	10.449	0.100
798.600	14.482	0.100
798.700	1.964	0.100
798.800	0.894	0.100
798.900	7.241	0.100
799.000	1.680	0.100
799.100	12.244	0.100
799.200	5.505	0.100
799.300	12.232	0.100
799.400	8.202	0.100
799.500	14.562	0.100
799.600	0.173	0.100
799.700	9.503	0.100
799.800	12.132	0.100
799.900	2.030	0.100
800.000	12.178	0.100
