time /s	I /nA	E /V
0.100	-9.381	0.100
0.200	-7.632	0.100
0.300	-14.748	0.100
0.400	-9.072	0.100
0.500	-9.610	0.100
0.600	-15.951	0.100
0.700	-7.539	0.100
0.800	-14.154	0.100
0.900	-17.408	0.100
1.000	-13.175	0.100
1.100	-19.398	0.100
1.200	-11.778	0.100
1.300	-12.705	0.100
1.400	-9.757	0.100
1.500	-6.063	0.100
1.600	-11.911	0.100
1.700	-7.599	0.100
1.800	-6.756	0.100
1.900	-19.927	0.100
2.000	-15.976	0.100
2.100	-19.006	0.100
2.200	-7.266	0.100
2.300	-13.452	0.100
2.400	-24.031	0.100
2.500	-12.548	0.100
2.600	-16.089	0.100
2.700	-15.233	0.100
2.800	-15.281	0.100
2.900	-13.729	0.100
3.000	-18.077	0.100
3.100	-7.437	0.100
3.200	-7.443	0.100
3.300	-13.010	0.100
3.400	-18.492	0.100
3.500	-8.800	0.100
3.600	-14.249	0.100
3.700	-11.273	0.100
3.800	-11.218	0.100
3.900	-14.819	0.100
4.000	-15.685	0.100
4.100	-12.736	0.100
4.200	-12.051	0.100
4.300	-9.806	0.100
4.400	-21.157	0.100
4.500	-9.872	0.100
4.600	-9.831	0.100
4.700	-15.238	0.100
4.800	-22.783	0.100
4.900	-6.143	0.100
5.000	-11.357	0.100
5.100	-12.253	0.100
5.200	-8.462	0.100
5.300	-12.171	0.100
5.400	-13.774	0.100
5.500	-9.653	0.100
5.600	-14.461	0.100
5.700	-10.492	0.100
5.800	-14.486	0.100
5.900	-7.866	0.100
6.000	-11.719	0.100
6.100	-12.995	0.100
6.200	-12.553	0.100
6.300	-13.518	0.100
6.400	-19.443	0.100
6.500	-16.385	0.100
6.600	-20.063	0.100
6.700	-16.934	0.100
6.800	-15.111	0.100
6.900	-14.010	0.100
7.000	-12.823	0.100
7.100	-11.774	0.100
7.200	-14.679	0.100
7.300	1.025	0.100
7.400	-18.947	0.100
7.500	-22.064	0.100
7.600	-20.087	0.100
7.700	-7.894	0.100
7.800	-8.950	0.100
7.900	-15.732	0.100
8.000	-11.723	0.100
8.100	-15.400	0.100
8.200	-17.257	0.100
8.300	-11.327	0.100
8.400	-11.979	0.100
8.500	-15.037	0.100
8.600	-11.532	0.100
8.700	-14.933	0.100
8.800	-12.403	0.100
8.900	-21.028	0.100
9.000	-13.173	0.100
9.100	-11.656	0.100
9.200	-8.586	0.100
9.300	-11.382	0.100
9.400	-15.464	0.100
9.500	-19.789	0.100
9.600	-10.746	0.100
9.700	-11.941	0.100
9.800	-12.525	0.100
9.900	-16.416	0.100
10.000	-17.209	0.100
10.100	-14.252	0.100
10.200	-8.138	0.100
10.300	-11.148	0.100
10.400	-15.056	0.100
10.500	-5.404	0.100
10.600	-21.079	0.100
10.700	-7.040	0.100
10.800	-13.092	0.100
10.900	-12.678	0.100
11.000	-23.963	0.100
11.100	-10.139	0.100
11.200	-7.978	0.100
11.300	-12.839	0.100
11.400	-13.961	0.100
11.500	-4.149	0.100
11.600	-12.663	0.100
11.700	-18.307	0.100
11.800	-15.324	0.100
11.900	-14.762	0.100
12.000	-10.405	0.100
12.100	-14.438	0.100
12.200	-12.680	0.100
12.300	-12.563	0.100
12.400	-8.857	0.100
12.500	-15.101	0.100
12.600	-8.575	0.100
12.700	-9.563	0.100
12.800	-12.871	0.100
12.900	-13.651	0.100
13.000	-22.158	0.100
13.100	-25.996	0.100
13.200	-11.216	0.100
13.300	2.063	0.100
13.400	-8.435	0.100
13.500	-10.517	0.100
13.600	-15.695	0.100
13.700	-12.817	0.100
13.800	-8.817	0.100
13.900	-17.665	0.100
14.000	-14.787	0.100
14.100	-3.743	0.100
14.200	-4.860	0.100
14.300	-8.841	0.100
14.400	-20.022	0.100
14.500	-11.982	0.100
14.600	-2.082	0.100
14.700	-9.495	0.100
14.800	-5.518	0.100
14.900	-15.386	0.100
15.000	-12.120	0.100
15.100	-19.092	0.100
15.200	-12.294	0.100
15.300	-8.683	0.100
15.400	-6.894	0.100
15.500	-20.774	0.100
15.600	-10.646	0.100
15.700	-8.462	0.100
15.800	-4.426	0.100
15.900	-13.500	0.100
16.000	-17.787	0.100
16.100	-13.643	0.100
16.200	-13.306	0.100
16.300	-5.474	0.100
16.400	-10.922	0.100
16.500	-11.358	0.100
16.600	-9.009	0.100
16.700	-8.452	0.100
16.800	-16.609	0.100
16.900	-5.831	0.100
17.000	-10.552	0.100
17.100	-12.364	0.100
17.200	-16.722	0.100
17.300	-8.258	0.100
17.400	-12.970	0.100
17.500	-14.241	0.100
17.600	-17.125	0.100
17.700	-6.996	0.100
17.800	-7.053	0.100
17.900	-18.188	0.100
18.000	-7.760	0.100
18.100	-2.374	0.100
18.200	-13.340	0.100
18.300	-7.786	0.100
18.400	-16.286	0.100
18.500	-10.818	0.100
18.600	-17.759	0.100
18.700	-15.424	0.100
18.800	-2.911	0.100
18.900	-12.414	0.100
19.000	-17.095	0.100
19.100	-5.442	0.100
19.200	-13.327	0.100
19.300	-15.530	0.100
19.400	-7.006	0.100
19.500	-17.275	0.100
19.600	-5.773	0.100
19.700	-10.269	0.100
19.800	-8.973	0.100
19.900	-7.819	0.100
20.000	-12.199	0.100
20.100	-6.571	0.100
20.200	-9.287	0.100
20.300	-8.745	0.100
20.400	-14.727	0.100
20.500	-14.181	0.100
20.600	-11.413	0.100
20.700	-18.163	0.100
20.800	-9.583	0.100
20.900	-5.087	0.100
21.000	-8.879	0.100
21.100	-15.214	0.100
21.200	-15.152	0.100
21.300	-11.496	0.100
21.400	-11.201	0.100
21.500	-14.178	0.100
21.600	-11.897	0.100
21.700	-16.212	0.100
21.800	-14.299	0.100
21.900	-7.666	0.100
22.000	-9.480	0.100
22.100	-2.563	0.100
22.200	-9.976	0.100
22.300	-17.105	0.100
22.400	-10.883	0.100
22.500	-17.018	0.100
22.600	-10.995	0.100
22.700	-3.386	0.100
22.800	-9.242	0.100
22.900	-18.990	0.100
23.000	-17.529	0.100
23.100	-14.960	0.100
23.200	-13.063	0.100
23.300	-1.221	0.100
23.400	-3.622	0.100
23.500	-13.074	0.099
23.600	-14.742	0.099
23.700	-7.511	0.099
23.800	-7.663	0.099
23.900	-10.616	0.099
24.000	-18.414	0.099
24.100	-18.730	0.099
24.200	-13.164	0.099
24.300	-5.049	0.099
24.400	-7.485	0.099
24.500	-12.116	0.099
24.600	-11.076	0.099
24.700	-10.513	0.099
24.800	-15.146	0.099
24.900	-9.973	0.099
25.000	-8.775	0.099
25.100	-11.809	0.099
25.200	-14.199	0.099
25.300	-15.971	0.099
25.400	-8.425	0.099
25.500	-3.389	0.099
25.600	-3.868	0.099
25.700	-10.907	0.099
25.800	-8.169	0.099
25.900	-14.675	0.099
26.000	-14.024	0.099
26.100	-8.238	0.099
26.200	-16.795	0.099
26.300	-16.747	0.099
26.400	-12.113	0.099
26.500	-9.767	0.099
26.600	-10.832	0.099
26.700	-11.628	0.099
26.800	-15.592	0.099
26.900	-9.583	0.099
27.000	-7.582	0.099
27.100	-20.570	0.099
27.200	-3.189	0.099
27.300	-10.079	0.099
27.400	-9.893	0.099
27.500	-14.420	0.099
27.600	-19.925	0.099
27.700	-18.521	0.099
27.800	0.154	0.099
27.900	-11.038	0.099
28.000	-13.456	0.099
28.100	-15.745	0.099
28.200	-14.065	0.099
28.300	-14.995	0.099
28.400	-1.526	0.099
28.500	-12.273	0.099
28.600	-8.696	0.099
28.700	-2.092	0.099
28.800	-9.736	0.099
28.900	-12.984	0.099
29.000	-12.985	0.099
29.100	-14.272	0.099
29.200	-13.824	0.099
29.300	-7.865	0.099
29.400	-6.759	0.099
29.500	-19.613	0.099
29.600	-4.631	0.099
29.700	-8.841	0.099
29.800	-18.254	0.099
29.900	-16.948	0.099
30.000	-5.620	0.099
30.100	-13.136	0.099
30.200	-12.017	0.099
30.300	-22.669	0.099
30.400	-8.683	0.099
30.500	-11.157	0.099
30.600	-6.296	0.099
30.700	-8.928	0.099
30.800	-7.222	0.099
30.900	-9.377	0.099
31.000	-16.102	0.099
31.100	-17.795	0.099
31.200	-9.716	0.099
31.300	-10.586	0.099
31.400	-14.125	0.099
31.500	-6.020	0.099
31.600	-12.788	0.099
31.700	-1.039	0.099
31.800	-6.356	0.099
31.900	-7.661	0.099
32.000	-7.576	0.099
32.100	-7.044	0.099
32.200	-13.833	0.099
32.300	-7.024	0.099
32.400	-3.891	0.099
32.500	-4.453	0.099
32.600	-4.089	0.099
32.700	-8.073	0.099
32.800	-3.380	0.099
32.900	-5.797	0.099
33.000	-2.400	0.099
33.100	-7.726	0.099
33.200	-11.586	0.099
33.300	-3.007	0.099
33.400	-1.908	0.099
33.500	1.523	0.099
33.600	-10.602	0.099
33.700	-16.270	0.099
33.800	-5.578	0.099
33.900	-0.160	0.099
34.000	0.489	0.099
34.100	-6.862	0.099
34.200	-9.127	0.099
34.300	-7.501	0.099
34.400	-7.999	0.099
34.500	-8.689	0.099
34.600	3.476	0.099
34.700	-6.221	0.099
34.800	-16.220	0.099
34.900	-2.916	0.099
35.000	-8.903	0.099
35.100	-6.211	0.099
35.200	-0.970	0.099
35.300	-2.844	0.099
35.400	-10.966	0.099
35.500	1.845	0.099
35.600	-10.395	0.099
35.700	-1.117	0.099
35.800	-10.969	0.099
35.900	-2.579	0.099
36.000	-1.684	0.099
36.100	-5.706	0.099
36.200	-2.034	0.099
36.300	-7.954	0.099
36.400	-5.634	0.099
36.500	-6.285	0.099
36.600	-8.543	0.099
36.700	1.123	0.099
36.800	-6.186	0.099
36.900	6.921	0.099
37.000	-8.400	0.099
37.100	-8.792	0.099
37.200	0.115	0.099
37.300	1.134	0.099
37.400	-0.344	0.099
37.500	0.550	0.099
37.600	-1.511	0.099
37.700	-7.584	0.099
37.800	-13.911	0.099
37.900	-2.326	0.099
38.000	-2.881	0.099
38.100	2.289	0.099
38.200	5.090	0.099
38.300	2.120	0.099
38.400	-16.122	0.099
38.500	-0.779	0.099
38.600	5.963	0.099
38.700	-7.023	0.099
38.800	-1.373	0.099
38.900	-13.323	0.099
39.000	8.693	0.099
39.100	-14.668	0.099
39.200	-4.942	0.099
39.300	2.763	0.099
39.400	-0.368	0.099
39.500	-2.704	0.099
39.600	-4.110	0.099
39.700	-2.420	0.099
39.800	1.142	0.099
39.900	-4.547	0.099
40.000	2.089	0.099
40.100	-2.636	0.099
40.200	-3.126	0.099
40.300	-4.797	0.099
40.400	-6.921	0.099
40.500	-9.098	0.099
40.600	-7.136	0.099
40.700	6.348	0.099
40.800	-1.903	0.100
40.900	-0.463	0.100
41.000	-8.480	0.100
41.100	-1.129	0.100
41.200	-0.657	0.100
41.300	4.329	0.100
41.400	-1.280	0.100
41.500	-5.578	0.100
41.600	1.956	0.100
41.700	-3.246	0.100
41.800	-0.912	0.100
41.900	3.297	0.100
42.000	1.306	0.100
42.100	5.201	0.100
42.200	-5.302	0.100
42.300	-6.833	0.100
42.400	-14.981	0.100
42.500	-1.254	0.100
42.600	2.022	0.100
42.700	-4.501	0.100
42.800	4.585	0.100
42.900	7.912	0.100
43.000	-2.841	0.100
43.100	-6.741	0.100
43.200	1.671	0.100
43.300	-2.282	0.100
43.400	-4.154	0.100
43.500	0.501	0.100
43.600	7.390	0.100
43.700	0.616	0.100
43.800	-2.769	0.100
43.900	1.017	0.100
44.000	0.856	0.100
44.100	2.012	0.100
44.200	2.747	0.100
44.300	7.752	0.100
44.400	-2.311	0.100
44.500	4.678	0.100
44.600	-6.065	0.100
44.700	-5.653	0.100
44.800	0.018	0.100
44.900	-1.713	0.100
45.000	0.072	0.100
45.100	3.230	0.100
45.200	-0.264	0.100
45.300	1.441	0.100
45.400	0.696	0.100
45.500	3.485	0.100
45.600	13.390	0.100
45.700	-0.635	0.100
45.800	-9.119	0.100
45.900	7.767	0.100
46.000	3.174	0.100
46.100	0.085	0.100
46.200	7.294	0.100
46.300	-8.140	0.100
46.400	0.652	0.100
46.500	4.932	0.100
46.600	-3.026	0.100
46.700	3.008	0.100
46.800	3.616	0.100
46.900	0.975	0.100
47.000	2.056	0.100
47.100	4.770	0.100
47.200	-3.544	0.100
47.300	-6.714	0.100
47.400	0.564	0.100
47.500	2.812	0.100
47.600	-4.582	0.100
47.700	1.472	0.100
47.800	-6.010	0.100
47.900	8.594	0.100
48.000	1.675	0.100
48.100	-4.938	0.100
48.200	-0.829	0.100
48.300	2.772	0.100
48.400	-0.213	0.100
48.500	-4.815	0.100
48.600	4.685	0.100
48.700	3.658	0.100
48.800	6.251	0.100
48.900	4.026	0.100
49.000	-2.349	0.100
49.100	-8.519	0.100
49.200	6.422	0.100
49.300	0.631	0.100
49.400	2.997	0.100
49.500	-5.233	0.100
49.600	-3.553	0.100
49.700	9.178	0.100
49.800	3.272	0.100
49.900	5.541	0.100
50.000	-3.729	0.100
50.100	4.220	0.100
50.200	0.719	0.100
50.300	2.000	0.100
50.400	-1.150	0.100
50.500	4.076	0.100
50.600	5.798	0.100
50.700	5.490	0.100
50.800	3.236	0.100
50.900	-2.754	0.100
51.000	7.871	0.100
51.100	4.457	0.100
51.200	-1.155	0.100
51.300	6.881	0.100
51.400	6.993	0.100
51.500	-3.755	0.100
51.600	0.811	0.100
51.700	0.749	0.100
51.800	1.638	0.100
51.900	5.370	0.100
52.000	1.523	0.100
52.100	1.352	0.100
52.200	2.259	0.100
52.300	3.031	0.100
52.400	9.406	0.100
52.500	-10.861	0.100
52.600	7.373	0.100
52.700	2.971	0.100
52.800	12.165	0.100
52.900	-9.299	0.100
53.000	-5.714	0.100
53.100	18.724	0.100
53.200	5.225	0.100
53.300	-2.941	0.100
53.400	9.452	0.100
53.500	2.116	0.100
53.600	3.355	0.100
53.700	7.018	0.100
53.800	0.979	0.100
53.900	1.584	0.100
54.000	13.497	0.100
54.100	9.339	0.100
54.200	7.580	0.100
54.300	-1.492	0.100
54.400	2.188	0.100
54.500	4.901	0.100
54.600	-1.719	0.100
54.700	-1.278	0.100
54.800	6.355	0.100
54.900	9.157	0.100
55.000	-2.242	0.100
55.100	10.590	0.100
55.200	-4.230	0.100
55.300	4.367	0.100
55.400	-0.173	0.100
55.500	20.886	0.100
55.600	5.128	0.100
55.700	1.031	0.100
55.800	-4.803	0.100
55.900	3.780	0.100
56.000	-4.240	0.100
56.100	8.070	0.100
56.200	1.172	0.100
56.300	7.804	0.100
56.400	13.965	0.100
56.500	-3.631	0.100
56.600	5.679	0.100
56.700	5.586	0.100
56.800	2.257	0.100
56.900	4.166	0.100
57.000	4.908	0.100
57.100	-5.991	0.100
57.200	8.271	0.100
57.300	5.040	0.100
57.400	5.984	0.100
57.500	11.631	0.100
57.600	8.564	0.100
57.700	4.357	0.100
57.800	-1.445	0.100
57.900	4.529	0.100
58.000	2.349	0.100
58.100	4.586	0.100
58.200	-1.418	0.100
58.300	2.929	0.100
58.400	14.824	0.100
58.500	17.212	0.100
58.600	4.487	0.100
58.700	11.394	0.100
58.800	-2.869	0.100
58.900	17.042	0.100
59.000	10.295	0.100
59.100	0.767	0.100
59.200	-4.728	0.100
59.300	12.075	0.100
59.400	6.193	0.100
59.500	-0.507	0.100
59.600	12.681	0.100
59.700	12.451	0.100
59.800	5.954	0.100
59.900	11.713	0.100
60.000	3.130	0.100
60.100	-0.283	0.100
60.200	1.656	0.100
60.300	3.165	0.100
60.400	3.385	0.100
60.500	7.358	0.100
60.600	10.640	0.100
60.700	2.766	0.100
60.800	2.079	0.100
60.900	3.885	0.100
61.000	7.922	0.100
61.100	11.245	0.100
61.200	11.167	0.100
61.300	-0.422	0.100
61.400	11.802	0.100
61.500	4.391	0.100
61.600	2.443	0.100
61.700	5.867	0.100
61.800	10.018	0.100
61.900	14.243	0.100
62.000	6.285	0.100
62.100	0.312	0.100
62.200	10.171	0.100
62.300	-1.233	0.100
62.400	10.535	0.100
62.500	21.172	0.100
62.600	2.196	0.100
62.700	13.592	0.100
62.800	-0.742	0.100
62.900	-0.349	0.100
63.000	12.275	0.100
63.100	9.585	0.100
63.200	8.944	0.100
63.300	4.869	0.100
63.400	8.182	0.100
63.500	7.020	0.100
63.600	14.269	0.100
63.700	4.313	0.100
63.800	8.853	0.100
63.900	8.326	0.100
64.000	10.681	0.100
64.100	6.679	0.100
64.200	7.847	0.100
64.300	7.486	0.100
64.400	6.093	0.100
64.500	6.592	0.100
64.600	4.503	0.100
64.700	12.453	0.100
64.800	8.820	0.100
64.900	12.105	0.100
65.000	6.689	0.100
65.100	9.371	0.100
65.200	12.165	0.100
65.300	7.606	0.100
65.400	15.516	0.100
65.500	3.867	0.100
65.600	5.490	0.100
65.700	4.940	0.100
65.800	2.104	0.100
65.900	18.157	0.100
66.000	-0.208	0.100
66.100	0.179	0.100
66.200	9.637	0.100
66.300	13.367	0.100
66.400	12.955	0.100
66.500	9.062	0.100
66.600	11.415	0.100
66.700	6.470	0.100
66.800	7.904	0.100
66.900	5.799	0.100
67.000	4.994	0.100
67.100	22.873	0.100
67.200	12.091	0.100
67.300	10.945	0.100
67.400	11.741	0.100
67.500	10.988	0.100
67.600	8.952	0.100
67.700	7.158	0.100
67.800	8.925	0.100
67.900	9.822	0.100
68.000	7.344	0.100
68.100	23.069	0.100
68.200	7.280	0.100
68.300	9.304	0.100
68.400	1.643	0.100
68.500	7.573	0.100
68.600	12.110	0.100
68.700	11.843	0.100
68.800	0.526	0.100
68.900	9.214	0.100
69.000	9.774	0.100
69.100	5.547	0.100
69.200	17.170	0.100
69.300	7.528	0.100
69.400	9.395	0.100
69.500	5.833	0.100
69.600	13.474	0.100
69.700	1.921	0.100
69.800	16.259	0.100
69.900	9.810	0.100
70.000	9.183	0.100
70.100	9.960	0.100
70.200	15.818	0.100
70.300	9.170	0.100
70.400	11.829	0.100
70.500	15.290	0.100
70.600	13.558	0.100
70.700	4.216	0.100
70.800	5.460	0.100
70.900	8.377	0.100
71.000	7.404	0.100
71.100	16.818	0.100
71.200	15.493	0.100
71.300	11.650	0.100
71.400	11.099	0.100
71.500	11.409	0.100
71.600	1.997	0.100
71.700	13.045	0.100
71.800	15.212	0.100
71.900	6.769	0.100
72.000	9.700	0.100
72.100	6.243	0.100
72.200	13.672	0.100
72.300	7.272	0.100
72.400	6.476	0.100
72.500	7.032	0.100
72.600	15.537	0.100
72.700	15.524	0.100
72.800	8.308	0.100
72.900	14.357	0.100
73.000	14.190	0.100
73.100	12.638	0.100
73.200	7.615	0.100
73.300	13.348	0.100
73.400	11.497	0.100
73.500	9.045	0.100
73.600	24.342	0.100
73.700	12.514	0.100
73.800	5.650	0.100
73.900	2.295	0.100
74.000	12.081	0.100
74.100	20.270	0.100
74.200	19.215	0.100
74.300	0.876	0.100
74.400	10.749	0.100
74.500	18.832	0.100
74.600	8.415	0.100
74.700	12.696	0.100
74.800	14.060	0.100
74.900	14.603	0.100
75.000	13.444	0.100
75.100	14.031	0.100
75.200	13.158	0.100
75.300	13.263	0.100
75.400	12.796	0.100
75.500	8.673	0.100
75.600	15.101	0.100
75.700	7.786	0.100
75.800	9.052	0.100
75.900	15.959	0.100
76.000	17.464	0.100
76.100	6.639	0.100
76.200	15.683	0.100
76.300	13.393	0.100
76.400	12.276	0.100
76.500	10.351	0.100
76.600	13.100	0.100
76.700	15.344	0.100
76.800	14.255	0.100
76.900	20.777	0.100
77.000	13.829	0.100
77.100	14.731	0.100
77.200	11.210	0.100
77.300	12.683	0.100
77.400	19.946	0.100
77.500	11.729	0.100
77.600	18.823	0.100
77.700	12.554	0.100
77.800	13.151	0.100
77.900	7.296	0.100
78.000	2.634	0.100
78.100	14.761	0.100
78.200	16.760	0.100
78.300	15.817	0.100
78.400	4.272	0.100
78.500	18.191	0.100
78.600	15.198	0.100
78.700	24.189	0.100
78.800	11.791	0.100
78.900	18.397	0.100
79.000	14.398	0.100
79.100	16.081	0.100
79.200	12.194	0.100
79.300	17.156	0.100
79.400	12.673	0.100
79.500	14.197	0.100
79.600	8.253	0.100
79.700	4.386	0.100
79.800	11.942	0.100
79.900	5.780	0.100
80.000	7.439	0.100
80.100	11.238	0.100
80.200	14.372	0.100
80.300	8.786	0.100
80.400	16.501	0.100
80.500	20.502	0.100
80.600	13.861	0.100
80.700	19.005	0.100
80.800	11.316	0.100
80.900	14.226	0.100
81.000	11.963	0.100
81.100	18.803	0.100
81.200	22.154	0.100
81.300	14.234	0.100
81.400	13.842	0.100
81.500	17.269	0.100
81.600	17.111	0.100
81.700	9.014	0.100
81.800	11.956	0.100
81.900	24.056	0.100
82.000	13.080	0.100
82.100	12.679	0.100
82.200	11.617	0.100
82.300	18.676	0.100
82.400	19.564	0.100
82.500	11.567	0.100
82.600	18.938	0.100
82.700	16.752	0.100
82.800	11.916	0.100
82.900	13.373	0.100
83.000	2.257	0.100
83.100	23.147	0.100
83.200	19.574	0.100
83.300	17.184	0.100
83.400	4.038	0.100
83.500	15.669	0.100
83.600	20.746	0.100
83.700	18.900	0.100
83.800	13.800	0.100
83.900	21.289	0.100
84.000	14.906	0.100
84.100	14.451	0.100
84.200	16.688	0.100
84.300	11.429	0.100
84.400	21.255	0.100
84.500	19.877	0.100
84.600	18.289	0.100
84.700	12.780	0.100
84.800	12.343	0.100
84.900	13.147	0.100
85.000	7.266	0.100
85.100	9.140	0.100
85.200	12.008	0.100
85.300	14.595	0.100
85.400	19.150	0.100
85.500	18.649	0.100
85.600	14.148	0.100
85.700	13.726	0.100
85.800	8.610	0.100
85.900	15.587	0.100
86.000	15.772	0.100
86.100	11.477	0.100
86.200	20.766	0.100
86.300	19.428	0.100
86.400	10.860	0.100
86.500	17.113	0.100
86.600	7.675	0.100
86.700	20.512	0.100
86.800	18.493	0.100
86.900	13.992	0.100
87.000	16.912	0.100
87.100	16.425	0.100
87.200	17.432	0.100
87.300	21.316	0.100
87.400	21.512	0.100
87.500	15.410	0.100
87.600	10.865	0.100
87.700	14.324	0.100
87.800	10.824	0.100
87.900	9.005	0.100
88.000	16.080	0.100
88.100	7.653	0.100
88.200	17.534	0.100
88.300	14.287	0.100
88.400	19.077	0.100
88.500	12.701	0.100
88.600	17.537	0.100
88.700	10.836	0.100
88.800	11.935	0.100
88.900	21.164	0.100
89.000	18.442	0.100
89.100	16.436	0.100
89.200	13.880	0.100
89.300	17.534	0.100
89.400	15.722	0.100
89.500	14.560	0.100
89.600	9.184	0.100
89.700	27.803	0.100
89.800	16.371	0.100
89.900	23.770	0.100
90.000	12.132	0.100
90.100	21.496	0.100
90.200	14.802	0.100
90.300	14.403	0.100
90.400	14.614	0.100
90.500	14.070	0.100
90.600	6.377	0.100
90.700	16.443	0.100
90.800	19.493	0.100
90.900	12.488	0.100
91.000	10.654	0.100
91.100	17.937	0.100
91.200	14.006	0.100
91.300	6.151	0.100
91.400	17.327	0.100
91.500	16.261	0.100
91.600	11.190	0.100
91.700	16.740	0.100
91.800	6.071	0.100
91.900	9.268	0.100
92.000	12.018	0.100
92.100	5.884	0.100
92.200	16.723	0.100
92.300	15.114	0.100
92.400	13.581	0.100
92.500	15.621	0.100
92.600	7.641	0.100
92.700	12.812	0.100
92.800	2.436	0.100
92.900	-0.627	0.100
93.000	14.375	0.100
93.100	20.989	0.100
93.200	11.260	0.100
93.300	8.399	0.100
93.400	8.288	0.100
93.500	11.819	0.100
93.600	9.761	0.100
93.700	7.127	0.100
93.800	9.070	0.100
93.900	9.827	0.100
94.000	5.489	0.100
94.100	1.053	0.100
94.200	14.227	0.100
94.300	15.994	0.100
94.400	0.738	0.100
94.500	16.868	0.100
94.600	13.409	0.100
94.700	11.397	0.100
94.800	10.354	0.100
94.900	5.028	0.100
95.000	-3.485	0.100
95.100	7.415	0.100
95.200	11.125	0.100
95.300	4.274	0.100
95.400	14.332	0.100
95.500	6.441	0.100
95.600	12.038	0.100
95.700	2.424	0.100
95.800	7.554	0.100
95.900	10.125	0.100
96.000	8.056	0.100
96.100	8.029	0.100
96.200	14.775	0.100
96.300	5.085	0.100
96.400	-3.142	0.100
96.500	3.668	0.100
96.600	4.424	0.100
96.700	14.512	0.100
96.800	14.170	0.100
96.900	6.340	0.100
97.000	10.508	0.100
97.100	5.338	0.100
97.200	9.460	0.100
97.300	1.471	0.100
97.400	8.862	0.100
97.500	3.114	0.100
97.600	4.710	0.100
97.700	6.364	0.100
97.800	7.732	0.100
97.900	5.757	0.100
98.000	10.226	0.100
98.100	7.937	0.100
98.200	5.739	0.100
98.300	4.583	0.100
98.400	14.233	0.100
98.500	8.172	0.100
98.600	10.250	0.100
98.700	-5.344	0.100
98.800	9.991	0.100
98.900	7.194	0.100
99.000	9.159	0.100
99.100	8.985	0.100
99.200	1.940	0.100
99.300	7.617	0.100
99.400	-0.911	0.100
99.500	-2.235	0.100
99.600	11.637	0.100
99.700	7.751	0.100
99.800	4.337	0.100
99.900	13.972	0.100
100.000	8.207	0.100
100.100	2.504	0.100
100.200	12.472	0.100
100.300	5.614	0.100
100.400	8.470	0.100
100.500	13.698	0.100
100.600	9.414	0.100
100.700	14.031	0.100
100.800	-3.591	0.100
100.900	0.594	0.100
101.000	10.325	0.100
101.100	0.019	0.100
101.200	10.821	0.100
101.300	7.714	0.100
101.400	12.494	0.100
101.500	4.486	0.100
101.600	5.945	0.100
101.700	6.690	0.100
101.800	9.888	0.100
101.900	5.841	0.100
102.000	6.754	0.100
102.100	5.346	0.100
102.200	4.767	0.100
102.300	10.079	0.100
102.400	0.418	0.100
102.500	15.080	0.100
102.600	2.114	0.100
102.700	9.877	0.100
102.800	6.149	0.100
102.900	9.307	0.100
103.000	14.748	0.100
103.100	-2.518	0.100
103.200	2.817	0.100
103.300	7.703	0.100
103.400	9.592	0.100
103.500	3.295	0.100
103.600	4.414	0.100
103.700	10.948	0.100
103.800	11.294	0.100
103.900	10.156	0.100
104.000	5.516	0.100
104.100	-2.768	0.100
104.200	9.777	0.100
104.300	6.426	0.100
104.400	14.062	0.100
104.500	3.972	0.100
104.600	16.877	0.100
104.700	8.283	0.100
104.800	5.747	0.100
104.900	1.303	0.100
105.000	6.174	0.100
105.100	3.475	0.100
105.200	3.488	0.100
105.300	0.088	0.100
105.400	10.367	0.100
105.500	6.112	0.100
105.600	9.075	0.100
105.700	8.708	0.100
105.800	3.267	0.100
105.900	3.068	0.100
106.000	-2.987	0.100
106.100	16.217	0.100
106.200	14.955	0.100
106.300	10.003	0.100
106.400	1.211	0.100
106.500	-3.343	0.100
106.600	7.828	0.100
106.700	-1.690	0.100
106.800	14.681	0.100
106.900	2.372	0.100
107.000	0.813	0.100
107.100	-2.239	0.100
107.200	-0.796	0.100
107.300	-4.593	0.100
107.400	6.411	0.100
107.500	9.686	0.100
107.600	7.461	0.100
107.700	-0.123	0.100
107.800	2.077	0.100
107.900	0.813	0.100
108.000	13.109	0.100
108.100	9.460	0.100
108.200	2.346	0.100
108.300	8.089	0.100
108.400	3.034	0.100
108.500	5.838	0.100
108.600	8.220	0.100
108.700	-4.584	0.100
108.800	6.094	0.100
108.900	5.808	0.100
109.000	1.546	0.100
109.100	8.031	0.100
109.200	5.762	0.100
109.300	10.076	0.100
109.400	4.957	0.100
109.500	-3.952	0.100
109.600	-2.325	0.100
109.700	13.225	0.100
109.800	0.553	0.100
109.900	4.609	0.100
110.000	-1.208	0.100
110.100	5.422	0.100
110.200	9.753	0.100
110.300	8.358	0.100
110.400	8.897	0.100
110.500	-5.540	0.100
110.600	2.921	0.100
110.700	-8.485	0.100
110.800	-1.309	0.100
110.900	9.564	0.100
111.000	4.394	0.100
111.100	-1.484	0.100
111.200	5.119	0.100
111.300	-2.196	0.100
111.400	1.010	0.100
111.500	10.470	0.100
111.600	0.391	0.100
111.700	5.191	0.100
111.800	2.429	0.100
111.900	0.047	0.100
112.000	8.075	0.100
112.100	5.908	0.100
112.200	4.466	0.100
112.300	2.227	0.100
112.400	-2.647	0.100
112.500	-0.091	0.100
112.600	9.471	0.100
112.700	5.625	0.100
112.800	2.301	0.100
112.900	3.850	0.100
113.000	2.893	0.100
113.100	-9.429	0.100
113.200	4.693	0.100
113.300	6.346	0.100
113.400	5.281	0.100
113.500	-6.538	0.100
113.600	12.138	0.100
113.700	-1.567	0.100
113.800	5.721	0.100
113.900	3.168	0.100
114.000	0.921	0.100
114.100	1.005	0.100
114.200	2.511	0.100
114.300	0.087	0.100
114.400	-3.496	0.100
114.500	12.535	0.100
114.600	0.246	0.100
114.700	-1.229	0.100
114.800	2.481	0.100
114.900	4.765	0.100
115.000	-1.751	0.100
115.100	1.529	0.100
115.200	-4.484	0.100
115.300	1.664	0.100
115.400	0.811	0.100
115.500	1.333	0.100
115.600	3.955	0.100
115.700	7.282	0.100
115.800	4.053	0.100
115.900	1.759	0.100
116.000	3.910	0.100
116.100	4.033	0.100
116.200	-8.178	0.100
116.300	-2.611	0.100
116.400	-4.929	0.100
116.500	-4.535	0.100
116.600	5.463	0.100
116.700	-0.053	0.100
116.800	4.803	0.100
116.900	0.200	0.100
117.000	0.839	0.100
117.100	1.033	0.100
117.200	-2.725	0.100
117.300	-6.633	0.100
117.400	12.363	0.100
117.500	-7.071	0.100
117.600	0.180	0.100
117.700	1.003	0.100
117.800	3.698	0.100
117.900	-1.040	0.100
118.000	8.263	0.100
118.100	5.436	0.100
118.200	-9.424	0.100
118.300	3.897	0.100
118.400	1.701	0.100
118.500	3.023	0.100
118.600	-4.670	0.100
118.700	-4.181	0.100
118.800	2.114	0.100
118.900	2.211	0.100
119.000	5.186	0.100
119.100	0.334	0.100
119.200	2.144	0.100
119.300	0.066	0.100
119.400	5.999	0.100
119.500	-1.984	0.100
119.600	-1.044	0.100
119.700	-2.463	0.100
119.800	0.617	0.100
119.900	-1.766	0.100
120.000	-3.665	0.100
120.100	0.033	0.100
120.200	-9.986	0.100
120.300	3.637	0.100
120.400	-1.104	0.100
120.500	-2.881	0.100
120.600	2.453	0.100
120.700	8.038	0.100
120.800	1.416	0.100
120.900	-2.669	0.100
121.000	-7.796	0.100
121.100	-3.144	0.100
121.200	-3.693	0.100
121.300	1.220	0.100
121.400	-5.122	0.100
121.500	2.224	0.100
121.600	-4.544	0.100
121.700	4.355	0.100
121.800	-7.202	0.100
121.900	7.732	0.100
122.000	-0.139	0.100
122.100	2.589	0.100
122.200	1.014	0.100
122.300	-1.144	0.100
122.400	-9.376	0.100
122.500	-2.726	0.100
122.600	4.602	0.100
122.700	1.196	0.100
122.800	0.374	0.100
122.900	-1.603	0.100
123.000	0.941	0.100
123.100	-0.229	0.100
123.200	-1.246	0.100
123.300	-2.646	0.100
123.400	-2.484	0.100
123.500	0.658	0.100
123.600	1.580	0.100
123.700	-8.711	0.100
123.800	0.792	0.100
123.900	1.960	0.100
124.000	5.978	0.100
124.100	-1.421	0.100
124.200	1.150	0.100
124.300	-2.400	0.100
124.400	-0.751	0.100
124.500	-8.903	0.100
124.600	-1.047	0.100
124.700	-0.198	0.100
124.800	2.215	0.100
124.900	-2.000	0.100
125.000	4.318	0.100
125.100	-2.611	0.100
125.200	-0.390	0.100
125.300	-4.487	0.100
125.400	7.037	0.100
125.500	-3.395	0.100
125.600	-6.571	0.100
125.700	0.355	0.100
125.800	1.789	0.100
125.900	-7.999	0.100
126.000	0.508	0.100
126.100	-4.668	0.100
126.200	-1.183	0.100
126.300	4.600	0.100
126.400	4.240	0.100
126.500	-1.216	0.100
126.600	-4.102	0.100
126.700	6.237	0.100
126.800	-1.332	0.100
126.900	2.845	0.100
127.000	0.711	0.100
127.100	-5.812	0.100
127.200	-11.355	0.100
127.300	1.714	0.100
127.400	5.119	0.100
127.500	-1.710	0.100
127.600	2.914	0.100
127.700	-2.277	0.100
127.800	6.191	0.100
127.900	-7.573	0.100
128.000	2.671	0.100
128.100	2.032	0.100
128.200	2.493	0.100
128.300	-0.284	0.100
128.400	-10.318	0.100
128.500	-0.897	0.100
128.600	-2.689	0.100
128.700	-4.404	0.100
128.800	-6.416	0.100
128.900	-0.185	0.100
129.000	-1.271	0.100
129.100	1.481	0.100
129.200	-2.474	0.100
129.300	-14.179	0.100
129.400	1.757	0.100
129.500	1.708	0.100
129.600	-1.699	0.100
129.700	-0.592	0.100
129.800	-11.809	0.100
129.900	0.514	0.100
130.000	-0.546	0.100
130.100	-0.552	0.100
130.200	-7.544	0.100
130.300	2.844	0.100
130.400	-0.854	0.100
130.500	2.725	0.100
130.600	1.109	0.100
130.700	-2.532	0.100
130.800	-1.215	0.100
130.900	2.828	0.100
131.000	-5.275	0.100
131.100	-1.373	0.100
131.200	0.099	0.100
131.300	-11.094	0.100
131.400	-17.774	0.100
131.500	8.255	0.100
131.600	6.358	0.100
131.700	0.316	0.100
131.800	-4.047	0.100
131.900	4.877	0.100
132.000	-0.859	0.100
132.100	-9.171	0.100
132.200	3.045	0.100
132.300	-1.348	0.100
132.400	-9.215	0.100
132.500	-3.063	0.100
132.600	-4.065	0.100
132.700	1.393	0.100
132.800	4.083	0.100
132.900	3.679	0.100
133.000	1.456	0.100
133.100	-7.254	0.100
133.200	-8.018	0.100
133.300	2.262	0.100
133.400	-4.043	0.100
133.500	-16.216	0.100
133.600	-2.317	0.100
133.700	0.920	0.100
133.800	-2.845	0.100
133.900	-3.500	0.100
134.000	-11.584	0.100
134.100	-6.646	0.100
134.200	-5.419	0.100
134.300	-2.692	0.100
134.400	-3.831	0.100
134.500	-1.059	0.100
134.600	6.029	0.100
134.700	2.930	0.100
134.800	0.838	0.100
134.900	-5.047	0.100
135.000	4.678	0.100
135.100	-2.335	0.100
135.200	-4.302	0.100
135.300	-3.363	0.100
135.400	-6.467	0.100
135.500	-0.299	0.100
135.600	0.342	0.100
135.700	-4.287	0.100
135.800	-2.275	0.100
135.900	-6.928	0.100
136.000	1.412	0.100
136.100	-13.792	0.100
136.200	-8.293	0.100
136.300	-3.217	0.100
136.400	3.495	0.100
136.500	-2.747	0.100
136.600	-6.030	0.100
136.700	-0.118	0.100
136.800	-6.837	0.100
136.900	-0.614	0.100
137.000	-8.033	0.100
137.100	4.515	0.100
137.200	-0.033	0.100
137.300	-0.399	0.100
137.400	-4.526	0.100
137.500	-2.136	0.100
137.600	-3.666	0.100
137.700	-2.414	0.100
137.800	5.868	0.100
137.900	-13.102	0.100
138.000	-2.276	0.100
138.100	5.961	0.100
138.200	3.426	0.100
138.300	-4.909	0.100
138.400	-8.929	0.100
138.500	-4.803	0.100
138.600	-6.325	0.100
138.700	-3.139	0.100
138.800	-3.790	0.100
138.900	-4.321	0.100
139.000	-8.393	0.100
139.100	-3.545	0.100
139.200	-8.835	0.100
139.300	-2.476	0.100
139.400	-1.328	0.100
139.500	-3.837	0.100
139.600	-8.909	0.100
139.700	-5.053	0.100
139.800	-4.741	0.100
139.900	-12.407	0.100
140.000	-6.842	0.100
140.100	-10.989	0.100
140.200	-2.208	0.100
140.300	-1.363	0.100
140.400	-8.506	0.100
140.500	-2.739	0.100
140.600	-0.080	0.100
140.700	-5.077	0.100
140.800	-12.327	0.100
140.900	-3.904	0.100
141.000	-0.373	0.100
141.100	0.441	0.100
141.200	2.652	0.100
141.300	-1.955	0.100
141.400	-8.829	0.100
141.500	-4.865	0.100
141.600	-3.934	0.100
141.700	-5.343	0.100
141.800	-6.637	0.100
141.900	-2.237	0.100
142.000	-2.307	0.100
142.100	-3.088	0.100
142.200	-4.584	0.100
142.300	3.890	0.100
142.400	-0.293	0.100
142.500	-7.477	0.100
142.600	-3.120	0.100
142.700	-9.188	0.100
142.800	-7.203	0.100
142.900	4.831	0.100
143.000	-9.767	0.100
143.100	1.533	0.100
143.200	-8.864	0.100
143.300	-4.229	0.100
143.400	-11.417	0.100
143.500	8.589	0.100
143.600	-3.842	0.100
143.700	-8.832	0.100
143.800	-4.301	0.100
143.900	-2.334	0.100
144.000	-10.640	0.100
144.100	-2.209	0.100
144.200	-2.507	0.100
144.300	4.181	0.100
144.400	-4.043	0.100
144.500	-7.280	0.100
144.600	-16.582	0.100
144.700	1.772	0.100
144.800	-1.424	0.100
144.900	-0.812	0.100
145.000	-5.874	0.100
145.100	-8.991	0.100
145.200	-2.886	0.100
145.300	-6.969	0.100
145.400	-3.533	0.100
145.500	1.309	0.100
145.600	1.405	0.100
145.700	-2.497	0.100
145.800	-16.639	0.100
145.900	-4.659	0.100
146.000	-5.327	0.100
146.100	-3.145	0.100
146.200	-5.549	0.100
146.300	-8.081	0.100
146.400	-4.026	0.100
146.500	-6.641	0.100
146.600	-6.675	0.100
146.700	-3.835	0.100
146.800	-8.943	0.100
146.900	-0.585	0.100
147.000	-3.833	0.100
147.100	2.543	0.100
147.200	-2.396	0.100
147.300	-5.237	0.100
147.400	-10.640	0.100
147.500	-18.397	0.100
147.600	-9.873	0.100
147.700	-1.155	0.100
147.800	-3.348	0.100
147.900	0.544	0.100
148.000	-8.520	0.100
148.100	-8.381	0.100
148.200	-11.168	0.100
148.300	-8.212	0.100
148.400	-4.306	0.100
148.500	-11.567	0.100
148.600	3.086	0.100
148.700	2.947	0.100
148.800	0.383	0.100
148.900	-0.486	0.100
149.000	-7.508	0.100
149.100	-7.093	0.100
149.200	-7.407	0.100
149.300	-1.198	0.100
149.400	-7.673	0.100
149.500	-4.321	0.100
149.600	-8.053	0.100
149.700	0.528	0.100
149.800	-9.359	0.100
149.900	-2.882	0.100
150.000	-1.413	0.100
150.100	-2.401	0.100
150.200	-1.734	0.100
150.300	-4.187	0.100
150.400	-6.421	0.100
150.500	-11.804	0.100
150.600	-4.152	0.100
150.700	3.244	0.100
150.800	1.113	0.100
150.900	1.822	0.100
151.000	-0.913	0.100
151.100	-7.416	0.100
151.200	-2.453	0.100
151.300	-1.566	0.100
151.400	-3.554	0.100
151.500	-5.817	0.100
151.600	-8.708	0.100
151.700	-6.385	0.100
151.800	1.532	0.100
151.900	7.799	0.100
152.000	-8.638	0.100
152.100	-3.924	0.100
152.200	-9.549	0.100
152.300	-13.696	0.100
152.400	0.813	0.100
152.500	-1.763	0.100
152.600	-0.900	0.100
152.700	1.853	0.100
152.800	-16.343	0.100
152.900	-9.715	0.100
153.000	-4.260	0.100
153.100	-9.026	0.100
153.200	-1.400	0.100
153.300	-6.226	0.100
153.400	-8.413	0.100
153.500	-6.541	0.100
153.600	1.288	0.100
153.700	-10.468	0.100
153.800	-7.038	0.100
153.900	-5.833	0.100
154.000	-10.501	0.100
154.100	-6.269	0.100
154.200	4.131	0.100
154.300	-0.472	0.100
154.400	-9.596	0.100
154.500	-4.631	0.100
154.600	-8.940	0.100
154.700	-7.583	0.100
154.800	-11.771	0.100
154.900	-0.194	0.100
155.000	-5.329	0.100
155.100	-11.440	0.100
155.200	3.302	0.100
155.300	-10.636	0.100
155.400	0.920	0.100
155.500	-8.994	0.100
155.600	-4.077	0.100
155.700	-5.904	0.100
155.800	-5.260	0.100
155.900	-5.318	0.100
156.000	-3.171	0.100
156.100	-7.702	0.100
156.200	-10.837	0.100
156.300	-4.777	0.100
156.400	-6.612	0.100
156.500	-8.961	0.100
156.600	-4.351	0.100
156.700	-4.314	0.100
156.800	-0.513	0.100
156.900	-1.370	0.100
157.000	-4.512	0.100
157.100	-5.611	0.100
157.200	-3.217	0.100
157.300	-4.527	0.100
157.400	-3.448	0.100
157.500	-7.884	0.100
157.600	-5.032	0.100
157.700	-17.129	0.100
157.800	-2.887	0.100
157.900	-3.266	0.100
158.000	-12.118	0.100
158.100	-10.511	0.100
158.200	-0.299	0.100
158.300	0.148	0.100
158.400	-7.291	0.100
158.500	-6.058	0.100
158.600	-1.537	0.100
158.700	-2.522	0.100
158.800	3.338	0.100
158.900	-11.792	0.100
159.000	-9.770	0.100
159.100	-4.436	0.100
159.200	-4.764	0.100
159.300	-10.221	0.100
159.400	-6.520	0.100
159.500	-3.020	0.100
159.600	-8.944	0.100
159.700	-3.546	0.100
159.800	-2.501	0.100
159.900	-8.423	0.100
160.000	-2.710	0.100
160.100	-10.040	0.100
160.200	-4.001	0.100
160.300	-5.467	0.100
160.400	-12.572	0.100
160.500	-7.352	0.100
160.600	-1.811	0.100
160.700	-3.927	0.100
160.800	-6.876	0.100
160.900	-9.742	0.100
161.000	-7.659	0.100
161.100	5.329	0.100
161.200	-4.181	0.100
161.300	-8.895	0.100
161.400	-8.717	0.100
161.500	0.438	0.100
161.600	-0.712	0.100
161.700	-2.622	0.100
161.800	-13.400	0.100
161.900	-10.869	0.100
162.000	-10.076	0.100
162.100	-1.829	0.100
162.200	-6.920	0.100
162.300	-6.424	0.100
162.400	-12.643	0.100
162.500	-4.431	0.100
162.600	-7.429	0.100
162.700	9.410	0.100
162.800	-8.928	0.100
162.900	-2.937	0.100
163.000	-7.314	0.100
163.100	3.641	0.100
163.200	0.914	0.100
163.300	-3.006	0.100
163.400	-17.725	0.100
163.500	-8.385	0.100
163.600	-5.343	0.100
163.700	-12.149	0.100
163.800	-1.259	0.100
163.900	-3.412	0.100
164.000	-9.414	0.100
164.100	-8.781	0.100
164.200	-2.392	0.100
164.300	2.701	0.100
164.400	-10.262	0.100
164.500	-7.079	0.100
164.600	-3.740	0.100
164.700	-1.100	0.100
164.800	-8.398	0.100
164.900	-3.212	0.100
165.000	-6.734	0.100
165.100	2.980	0.100
165.200	-2.319	0.100
165.300	-1.598	0.100
165.400	-11.952	0.100
165.500	0.850	0.100
165.600	-4.371	0.100
165.700	-6.610	0.100
165.800	4.070	0.100
165.900	2.404	0.100
166.000	-5.031	0.100
166.100	0.402	0.100
166.200	-14.001	0.100
166.300	-7.602	0.100
166.400	-7.451	0.100
166.500	1.385	0.100
166.600	-13.477	0.100
166.700	-2.970	0.100
166.800	-4.112	0.100
166.900	0.621	0.100
167.000	-9.649	0.100
167.100	-3.654	0.100
167.200	-3.903	0.100
167.300	-9.001	0.100
167.400	-11.823	0.100
167.500	-12.841	0.100
167.600	2.266	0.100
167.700	-3.509	0.100
167.800	-9.378	0.100
167.900	-0.147	0.100
168.000	-8.051	0.100
168.100	1.691	0.100
168.200	-7.991	0.100
168.300	-9.754	0.100
168.400	-17.893	0.100
168.500	4.950	0.100
168.600	-0.445	0.100
168.700	-7.622	0.100
168.800	-1.033	0.100
168.900	-5.343	0.100
169.000	-6.433	0.100
169.100	-7.415	0.100
169.200	-1.186	0.100
169.300	-9.573	0.100
169.400	-20.867	0.100
169.500	-4.278	0.100
169.600	-4.118	0.100
169.700	-7.210	0.100
169.800	3.803	0.100
169.900	-1.317	0.100
170.000	-10.263	0.100
170.100	-2.114	0.100
170.200	-6.500	0.100
170.300	-2.426	0.100
170.400	-6.945	0.100
170.500	-9.070	0.100
170.600	-3.000	0.100
170.700	3.218	0.100
170.800	-1.554	0.100
170.900	-15.786	0.100
171.000	-8.091	0.100
171.100	-6.132	0.100
171.200	4.656	0.100
171.300	-1.076	0.100
171.400	1.999	0.100
171.500	-10.485	0.100
171.600	-11.082	0.100
171.700	-7.209	0.100
171.800	-7.050	0.100
171.900	-6.336	0.100
172.000	-6.138	0.100
172.100	-6.931	0.100
172.200	-2.564	0.100
172.300	-4.089	0.100
172.400	-4.827	0.100
172.500	-6.411	0.100
172.600	-6.227	0.100
172.700	-1.026	0.100
172.800	2.528	0.100
172.900	-0.768	0.100
173.000	-9.232	0.100
173.100	-15.309	0.100
173.200	-8.806	0.100
173.300	-3.904	0.100
173.400	-5.831	0.100
173.500	-2.604	0.100
173.600	-1.177	0.100
173.700	-7.328	0.100
173.800	-2.177	0.100
173.900	-3.554	0.100
174.000	-0.522	0.100
174.100	-6.121	0.100
174.200	-11.754	0.100
174.300	-4.477	0.100
174.400	-4.550	0.100
174.500	-9.222	0.100
174.600	-13.082	0.100
174.700	-4.428	0.100
174.800	2.032	0.100
174.900	-1.224	0.100
175.000	-8.179	0.100
175.100	-5.102	0.100
175.200	-0.003	0.100
175.300	-6.632	0.100
175.400	-12.998	0.100
175.500	-2.845	0.100
175.600	-3.257	0.100
175.700	-10.862	0.100
175.800	6.710	0.100
175.900	-8.211	0.100
176.000	-7.401	0.100
176.100	-14.255	0.100
176.200	-8.360	0.100
176.300	-7.362	0.100
176.400	-3.730	0.100
176.500	-7.329	0.100
176.600	-3.579	0.100
176.700	-1.776	0.100
176.800	-15.786	0.100
176.900	-15.188	0.100
177.000	-16.240	0.100
177.100	-5.016	0.100
177.200	-1.628	0.100
177.300	1.980	0.100
177.400	-9.060	0.100
177.500	-2.466	0.100
177.600	0.534	0.100
177.700	-10.307	0.100
177.800	-11.440	0.100
177.900	-18.303	0.100
178.000	8.118	0.100
178.100	3.217	0.100
178.200	-4.904	0.100
178.300	-6.061	0.100
178.400	-4.679	0.100
178.500	-7.540	0.100
178.600	-9.027	0.100
178.700	-10.766	0.100
178.800	-2.817	0.100
178.900	-5.409	0.100
179.000	-5.365	0.100
179.100	-9.724	0.100
179.200	-7.061	0.100
179.300	-7.109	0.100
179.400	-6.122	0.100
179.500	-11.297	0.100
179.600	-0.841	0.100
179.700	-1.529	0.100
179.800	-4.240	0.100
179.900	-13.923	0.100
180.000	-3.024	0.100
180.100	-7.240	0.100
180.200	-3.925	0.100
180.300	-3.870	0.100
180.400	-5.717	0.100
180.500	2.842	0.100
180.600	-3.956	0.100
180.700	-3.972	0.100
180.800	-0.681	0.100
180.900	-0.919	0.100
181.000	-4.860	0.100
181.100	-9.198	0.100
181.200	-4.116	0.100
181.300	-5.492	0.100
181.400	7.037	0.100
181.500	2.443	0.100
181.600	3.654	0.100
181.700	-2.237	0.100
181.800	2.755	0.100
181.900	-5.373	0.100
182.000	-12.300	0.100
182.100	2.064	0.100
182.200	12.630	0.100
182.300	-3.757	0.100
182.400	-2.973	0.100
182.500	-1.321	0.100
182.600	0.625	0.100
182.700	3.087	0.100
182.800	-0.118	0.100
182.900	-1.138	0.100
183.000	3.550	0.100
183.100	5.663	0.100
183.200	-6.974	0.100
183.300	0.265	0.100
183.400	4.454	0.100
183.500	5.070	0.100
183.600	1.848	0.100
183.700	0.960	0.100
183.800	0.467	0.100
183.900	3.699	0.100
184.000	-1.017	0.100
184.100	9.698	0.100
184.200	-9.200	0.100
184.300	8.870	0.100
184.400	3.034	0.100
184.500	-2.124	0.100
184.600	6.875	0.100
184.700	6.827	0.100
184.800	1.843	0.100
184.900	1.932	0.100
185.000	1.836	0.100
185.100	-3.007	0.100
185.200	6.905	0.100
185.300	8.848	0.100
185.400	-0.112	0.100
185.500	5.069	0.100
185.600	1.686	0.100
185.700	5.014	0.100
185.800	8.233	0.100
185.900	-2.470	0.100
186.000	0.841	0.100
186.100	1.294	0.100
186.200	-2.272	0.100
186.300	9.063	0.100
186.400	-2.626	0.100
186.500	-2.501	0.100
186.600	10.716	0.100
186.700	5.427	0.100
186.800	5.095	0.100
186.900	2.322	0.100
187.000	1.825	0.100
187.100	-8.935	0.100
187.200	2.033	0.100
187.300	5.344	0.100
187.400	9.836	0.100
187.500	4.618	0.100
187.600	-5.337	0.100
187.700	-1.153	0.100
187.800	-11.609	0.100
187.900	3.703	0.100
188.000	2.691	0.100
188.100	10.914	0.100
188.200	6.401	0.100
188.300	5.014	0.100
188.400	-11.260	0.100
188.500	5.544	0.100
188.600	6.308	0.100
188.700	4.300	0.100
188.800	6.931	0.100
188.900	3.894	0.100
189.000	13.445	0.100
189.100	6.210	0.100
189.200	-1.022	0.100
189.300	-9.220	0.100
189.400	-0.210	0.100
189.500	3.640	0.100
189.600	4.275	0.100
189.700	1.462	0.100
189.800	7.909	0.100
189.900	2.211	0.100
190.000	6.604	0.100
190.100	1.929	0.100
190.200	7.221	0.100
190.300	8.933	0.100
190.400	6.932	0.100
190.500	-0.726	0.100
190.600	0.553	0.100
190.700	4.637	0.100
190.800	3.978	0.100
190.900	9.786	0.100
191.000	3.918	0.100
191.100	-0.636	0.100
191.200	11.120	0.100
191.300	0.550	0.100
191.400	8.799	0.100
191.500	3.935	0.100
191.600	9.143	0.100
191.700	0.796	0.100
191.800	10.790	0.100
191.900	13.083	0.100
192.000	3.843	0.100
192.100	2.591	0.100
192.200	5.162	0.100
192.300	7.820	0.100
192.400	18.328	0.100
192.500	6.078	0.100
192.600	3.783	0.100
192.700	0.950	0.100
192.800	6.812	0.100
192.900	2.615	0.100
193.000	12.219	0.100
193.100	7.793	0.100
193.200	2.929	0.100
193.300	2.644	0.100
193.400	10.902	0.100
193.500	-0.563	0.100
193.600	24.808	0.100
193.700	2.615	0.100
193.800	4.120	0.100
193.900	8.716	0.100
194.000	0.770	0.100
194.100	-0.653	0.100
194.200	2.092	0.100
194.300	4.180	0.100
194.400	1.430	0.100
194.500	14.782	0.100
194.600	5.865	0.100
194.700	6.939	0.100
194.800	4.827	0.100
194.900	2.998	0.100
195.000	13.902	0.100
195.100	16.088	0.100
195.200	6.081	0.100
195.300	4.462	0.100
195.400	14.851	0.100
195.500	7.471	0.100
195.600	5.838	0.100
195.700	6.875	0.100
195.800	14.627	0.100
195.900	8.610	0.100
196.000	11.939	0.100
196.100	9.166	0.100
196.200	-0.013	0.100
196.300	4.669	0.100
196.400	14.421	0.100
196.500	11.597	0.100
196.600	14.013	0.100
196.700	-4.773	0.100
196.800	7.218	0.100
196.900	3.707	0.100
197.000	5.914	0.100
197.100	9.606	0.100
197.200	10.500	0.100
197.300	12.169	0.100
197.400	9.028	0.100
197.500	7.834	0.100
197.600	10.210	0.100
197.700	7.963	0.100
197.800	4.139	0.100
197.900	-4.107	0.100
198.000	7.859	0.100
198.100	12.437	0.100
198.200	11.869	0.100
198.300	9.158	0.100
198.400	3.270	0.100
198.500	7.167	0.100
198.600	9.107	0.100
198.700	16.159	0.100
198.800	6.947	0.100
198.900	8.973	0.100
199.000	0.281	0.100
199.100	6.326	0.100
199.200	10.820	0.100
199.300	2.901	0.100
199.400	11.506	0.100
199.500	19.301	0.100
199.600	5.436	0.100
199.700	17.356	0.100
199.800	11.173	0.100
199.900	8.935	0.100
200.000	0.541	0.100
200.100	3.925	0.100
200.200	13.616	0.100
200.300	10.446	0.100
200.400	8.858	0.100
200.500	2.390	0.100
200.600	4.017	0.100
200.700	17.504	0.100
200.800	16.562	0.100
200.900	8.955	0.100
201.000	13.286	0.100
201.100	4.931	0.100
201.200	13.670	0.100
201.300	13.416	0.100
201.400	11.855	0.100
201.500	10.983	0.100
201.600	9.164	0.100
201.700	1.343	0.100
201.800	9.143	0.100
201.900	9.566	0.100
202.000	5.980	0.100
202.100	16.075	0.100
202.200	13.279	0.100
202.300	8.778	0.100
202.400	15.889	0.100
202.500	5.513	0.100
202.600	14.181	0.100
202.700	7.081	0.100
202.800	9.041	0.100
202.900	17.050	0.100
203.000	16.381	0.100
203.100	14.583	0.100
203.200	9.735	0.100
203.300	12.841	0.100
203.400	11.184	0.100
203.500	12.998	0.100
203.600	13.549	0.100
203.700	10.021	0.100
203.800	13.277	0.100
203.900	9.123	0.100
204.000	2.924	0.100
204.100	14.396	0.100
204.200	11.049	0.100
204.300	5.986	0.100
204.400	10.137	0.100
204.500	13.065	0.100
204.600	13.761	0.100
204.700	13.380	0.100
204.800	7.849	0.100
204.900	7.160	0.100
205.000	12.363	0.100
205.100	8.663	0.100
205.200	12.489	0.100
205.300	11.709	0.100
205.400	16.993	0.100
205.500	12.889	0.100
205.600	1.892	0.100
205.700	14.094	0.100
205.800	9.618	0.100
205.900	11.101	0.100
206.000	7.641	0.100
206.100	16.723	0.100
206.200	14.514	0.100
206.300	6.140	0.100
206.400	10.804	0.100
206.500	5.859	0.100
206.600	19.825	0.100
206.700	13.546	0.100
206.800	1.636	0.100
206.900	6.120	0.100
207.000	9.139	0.100
207.100	19.352	0.100
207.200	15.586	0.100
207.300	6.272	0.100
207.400	12.913	0.100
207.500	12.559	0.100
207.600	3.371	0.100
207.700	15.688	0.100
207.800	14.054	0.100
207.900	6.618	0.100
208.000	17.776	0.100
208.100	14.508	0.100
208.200	9.328	0.100
208.300	18.298	0.100
208.400	9.355	0.100
208.500	4.987	0.100
208.600	7.733	0.100
208.700	18.368	0.100
208.800	13.140	0.100
208.900	11.757	0.100
209.000	6.660	0.100
209.100	10.855	0.100
209.200	3.856	0.100
209.300	14.710	0.100
209.400	17.568	0.100
209.500	12.692	0.100
209.600	13.681	0.100
209.700	9.673	0.100
209.800	17.055	0.100
209.900	21.111	0.100
210.000	13.776	0.100
210.100	16.655	0.100
210.200	21.186	0.100
210.300	5.070	0.100
210.400	14.325	0.100
210.500	13.502	0.100
210.600	17.068	0.100
210.700	12.380	0.100
210.800	15.762	0.100
210.900	14.639	0.100
211.000	10.342	0.100
211.100	12.849	0.100
211.200	12.821	0.100
211.300	14.041	0.100
211.400	14.113	0.100
211.500	2.846	0.100
211.600	14.565	0.100
211.700	13.163	0.100
211.800	13.295	0.100
211.900	9.782	0.100
212.000	16.545	0.100
212.100	12.946	0.100
212.200	11.459	0.100
212.300	20.291	0.100
212.400	19.996	0.100
212.500	8.864	0.100
212.600	10.388	0.100
212.700	19.794	0.100
212.800	12.746	0.100
212.900	11.542	0.100
213.000	10.112	0.100
213.100	17.163	0.100
213.200	19.824	0.100
213.300	15.776	0.100
213.400	15.097	0.100
213.500	10.870	0.100
213.600	13.202	0.100
213.700	16.013	0.100
213.800	15.741	0.100
213.900	7.588	0.100
214.000	10.523	0.100
214.100	12.065	0.100
214.200	20.383	0.100
214.300	23.397	0.100
214.400	7.821	0.100
214.500	18.170	0.100
214.600	12.944	0.100
214.700	9.060	0.100
214.800	16.465	0.100
214.900	10.378	0.100
215.000	9.072	0.100
215.100	14.764	0.100
215.200	20.811	0.100
215.300	16.875	0.100
215.400	12.013	0.100
215.500	23.512	0.100
215.600	16.275	0.100
215.700	12.123	0.100
215.800	18.410	0.100
215.900	9.300	0.100
216.000	16.951	0.100
216.100	12.382	0.100
216.200	16.381	0.100
216.300	15.185	0.100
216.400	19.866	0.100
216.500	20.561	0.100
216.600	16.879	0.100
216.700	12.800	0.100
216.800	7.148	0.100
216.900	12.223	0.100
217.000	14.465	0.100
217.100	18.564	0.100
217.200	12.969	0.100
217.300	21.457	0.100
217.400	13.456	0.100
217.500	10.907	0.100
217.600	23.290	0.100
217.700	15.952	0.100
217.800	16.269	0.100
217.900	16.990	0.100
218.000	8.879	0.100
218.100	12.182	0.100
218.200	20.079	0.100
218.300	17.809	0.100
218.400	19.355	0.100
218.500	15.241	0.100
218.600	11.417	0.100
218.700	25.093	0.100
218.800	7.047	0.100
218.900	16.525	0.100
219.000	12.041	0.100
219.100	15.172	0.100
219.200	17.613	0.100
219.300	8.344	0.100
219.400	8.750	0.100
219.500	10.314	0.100
219.600	16.599	0.100
219.700	18.286	0.100
219.800	12.968	0.100
219.900	17.595	0.100
220.000	21.663	0.100
220.100	19.572	0.100
220.200	20.754	0.100
220.300	18.762	0.100
220.400	7.200	0.100
220.500	20.616	0.100
220.600	15.158	0.100
220.700	16.949	0.100
220.800	19.856	0.100
220.900	13.144	0.100
221.000	16.050	0.100
221.100	24.444	0.100
221.200	12.760	0.100
221.300	15.662	0.100
221.400	17.272	0.100
221.500	7.465	0.100
221.600	18.050	0.100
221.700	9.319	0.100
221.800	20.917	0.100
221.900	17.225	0.100
222.000	14.501	0.100
222.100	20.828	0.100
222.200	19.579	0.100
222.300	18.986	0.100
222.400	5.162	0.100
222.500	18.073	0.100
222.600	17.300	0.100
222.700	24.092	0.100
222.800	12.699	0.100
222.900	25.684	0.100
223.000	16.429	0.100
223.100	23.165	0.100
223.200	19.590	0.100
223.300	21.304	0.100
223.400	15.702	0.100
223.500	11.789	0.100
223.600	7.377	0.100
223.700	12.830	0.100
223.800	10.294	0.100
223.900	26.963	0.100
224.000	10.161	0.100
224.100	11.874	0.100
224.200	10.829	0.100
224.300	17.973	0.100
224.400	23.232	0.100
224.500	15.537	0.100
224.600	13.938	0.100
224.700	13.978	0.100
224.800	18.721	0.100
224.900	13.638	0.100
225.000	16.742	0.100
225.100	21.538	0.100
225.200	21.414	0.100
225.300	15.682	0.100
225.400	22.399	0.100
225.500	11.424	0.100
225.600	30.998	0.100
225.700	13.287	0.100
225.800	14.833	0.100
225.900	18.244	0.100
226.000	17.359	0.100
226.100	6.807	0.100
226.200	23.417	0.100
226.300	23.417	0.100
226.400	20.750	0.100
226.500	17.778	0.100
226.600	17.718	0.100
226.700	22.854	0.100
226.800	5.878	0.100
226.900	18.973	0.100
227.000	20.883	0.100
227.100	17.010	0.100
227.200	20.481	0.100
227.300	21.217	0.100
227.400	18.139	0.100
227.500	14.947	0.100
227.600	20.875	0.100
227.700	14.826	0.100
227.800	23.829	0.100
227.900	17.688	0.100
228.000	12.376	0.100
228.100	17.132	0.100
228.200	13.790	0.100
228.300	20.290	0.100
228.400	22.058	0.100
228.500	19.171	0.100
228.600	15.742	0.100
228.700	21.102	0.100
228.800	27.143	0.100
228.900	21.211	0.100
229.000	16.159	0.100
229.100	13.217	0.100
229.200	20.503	0.100
229.300	15.036	0.100
229.400	14.533	0.100
229.500	17.716	0.100
229.600	25.686	0.100
229.700	22.027	0.100
229.800	23.317	0.100
229.900	11.757	0.100
230.000	13.395	0.100
230.100	16.765	0.100
230.200	19.445	0.100
230.300	17.720	0.100
230.400	15.252	0.100
230.500	21.670	0.100
230.600	18.318	0.100
230.700	18.435	0.100
230.800	22.017	0.100
230.900	25.048	0.100
231.000	28.122	0.100
231.100	16.586	0.100
231.200	22.625	0.100
231.300	11.252	0.100
231.400	17.438	0.100
231.500	20.341	0.100
231.600	24.850	0.100
231.700	17.830	0.100
231.800	19.677	0.100
231.900	12.634	0.100
232.000	9.551	0.100
232.100	24.296	0.100
232.200	21.193	0.100
232.300	19.323	0.100
232.400	23.034	0.100
232.500	20.083	0.100
232.600	8.215	0.100
232.700	19.004	0.100
232.800	20.122	0.100
232.900	12.140	0.100
233.000	11.077	0.100
233.100	18.388	0.100
233.200	22.074	0.100
233.300	14.269	0.100
233.400	21.671	0.100
233.500	30.327	0.100
233.600	24.362	0.100
233.700	22.107	0.100
233.800	21.615	0.100
233.900	14.711	0.100
234.000	16.495	0.100
234.100	14.477	0.100
234.200	15.427	0.100
234.300	26.800	0.100
234.400	28.039	0.100
234.500	17.517	0.100
234.600	23.832	0.100
234.700	18.168	0.100
234.800	25.768	0.100
234.900	16.812	0.100
235.000	19.899	0.100
235.100	17.488	0.100
235.200	26.948	0.100
235.300	15.887	0.100
235.400	14.631	0.100
235.500	18.341	0.100
235.600	13.865	0.100
235.700	16.661	0.100
235.800	20.331	0.100
235.900	29.928	0.100
236.000	22.991	0.100
236.100	11.606	0.100
236.200	17.044	0.100
236.300	15.083	0.100
236.400	15.430	0.100
236.500	28.183	0.100
236.600	23.391	0.100
236.700	22.366	0.100
236.800	19.542	0.100
236.900	17.548	0.100
237.000	19.928	0.100
237.100	23.260	0.100
237.200	26.694	0.100
237.300	19.672	0.100
237.400	12.366	0.100
237.500	25.268	0.100
237.600	18.500	0.100
237.700	18.053	0.100
237.800	23.138	0.100
237.900	26.533	0.100
238.000	20.454	0.100
238.100	19.349	0.100
238.200	18.555	0.100
238.300	19.572	0.100
238.400	22.768	0.100
238.500	23.443	0.100
238.600	19.121	0.100
238.700	12.207	0.100
238.800	23.335	0.100
238.900	16.130	0.100
239.000	20.631	0.100
239.100	23.250	0.100
239.200	21.433	0.100
239.300	18.247	0.100
239.400	22.646	0.100
239.500	20.997	0.100
239.600	21.954	0.100
239.700	9.385	0.100
239.800	24.230	0.100
239.900	30.410	0.100
240.000	20.525	0.100
240.100	19.785	0.100
240.200	22.732	0.100
240.300	16.743	0.100
240.400	17.021	0.100
240.500	8.668	0.100
240.600	23.267	0.100
240.700	8.377	0.100
240.800	23.179	0.100
240.900	20.231	0.100
241.000	20.805	0.100
241.100	17.178	0.100
241.200	14.435	0.100
241.300	28.141	0.100
241.400	15.282	0.100
241.500	15.016	0.100
241.600	9.039	0.100
241.700	14.260	0.100
241.800	15.769	0.100
241.900	20.610	0.100
242.000	14.287	0.100
242.100	20.997	0.100
242.200	13.407	0.100
242.300	1.989	0.100
242.400	22.092	0.100
242.500	14.825	0.100
242.600	16.093	0.100
242.700	11.949	0.100
242.800	12.739	0.100
242.900	18.110	0.100
243.000	15.717	0.100
243.100	14.420	0.100
243.200	13.203	0.100
243.300	15.445	0.100
243.400	17.263	0.100
243.500	12.395	0.100
243.600	7.452	0.100
243.700	12.812	0.100
243.800	11.232	0.100
243.900	5.433	0.100
244.000	11.994	0.100
244.100	16.995	0.100
244.200	15.176	0.100
244.300	26.919	0.100
244.400	14.030	0.100
244.500	10.747	0.100
244.600	8.772	0.100
244.700	7.899	0.100
244.800	17.232	0.100
244.900	11.160	0.100
245.000	10.498	0.100
245.100	11.608	0.100
245.200	16.754	0.100
245.300	17.431	0.100
245.400	22.629	0.100
245.500	16.800	0.100
245.600	6.720	0.100
245.700	11.442	0.100
245.800	8.073	0.100
245.900	9.901	0.100
246.000	8.671	0.100
246.100	10.816	0.100
246.200	8.669	0.100
246.300	6.348	0.100
246.400	14.242	0.100
246.500	11.878	0.100
246.600	11.237	0.100
246.700	13.355	0.100
246.800	11.804	0.100
246.900	16.719	0.100
247.000	9.479	0.100
247.100	13.813	0.100
247.200	19.890	0.100
247.300	10.360	0.100
247.400	2.615	0.100
247.500	11.391	0.100
247.600	7.723	0.100
247.700	12.348	0.100
247.800	0.574	0.100
247.900	20.045	0.100
248.000	9.554	0.100
248.100	9.038	0.100
248.200	11.669	0.100
248.300	13.575	0.100
248.400	8.183	0.100
248.500	7.782	0.100
248.600	7.446	0.100
248.700	8.203	0.100
248.800	18.435	0.100
248.900	16.342	0.100
249.000	13.610	0.100
249.100	7.893	0.100
249.200	16.001	0.100
249.300	8.035	0.100
249.400	6.069	0.100
249.500	11.779	0.100
249.600	13.754	0.100
249.700	13.828	0.100
249.800	8.932	0.100
249.900	10.142	0.100
250.000	8.991	0.100
250.100	14.997	0.100
250.200	8.889	0.100
250.300	13.440	0.100
250.400	6.089	0.100
250.500	9.924	0.100
250.600	11.854	0.100
250.700	11.567	0.100
250.800	9.549	0.100
250.900	3.709	0.100
251.000	6.642	0.100
251.100	17.285	0.100
251.200	10.398	0.100
251.300	12.246	0.100
251.400	12.949	0.100
251.500	11.279	0.100
251.600	16.346	0.100
251.700	14.775	0.100
251.800	12.349	0.100
251.900	10.346	0.100
252.000	7.435	0.100
252.100	6.830	0.100
252.200	17.725	0.100
252.300	19.578	0.100
252.400	10.217	0.100
252.500	9.319	0.100
252.600	4.424	0.100
252.700	8.852	0.100
252.800	2.486	0.100
252.900	14.440	0.100
253.000	8.713	0.100
253.100	10.890	0.100
253.200	0.925	0.100
253.300	10.722	0.100
253.400	9.903	0.100
253.500	10.242	0.100
253.600	9.858	0.100
253.700	9.854	0.100
253.800	9.404	0.100
253.900	7.856	0.100
254.000	9.167	0.100
254.100	18.331	0.100
254.200	1.513	0.100
254.300	21.689	0.100
254.400	4.742	0.100
254.500	16.574	0.100
254.600	7.351	0.100
254.700	5.226	0.100
254.800	3.453	0.100
254.900	4.453	0.100
255.000	12.891	0.100
255.100	2.938	0.100
255.200	4.104	0.100
255.300	4.997	0.100
255.400	9.932	0.100
255.500	18.555	0.100
255.600	13.671	0.100
255.700	10.443	0.100
255.800	0.039	0.100
255.900	3.798	0.100
256.000	11.751	0.100
256.100	2.187	0.100
256.200	9.829	0.100
256.300	15.342	0.100
256.400	3.808	0.100
256.500	8.746	0.100
256.600	17.844	0.100
256.700	7.987	0.100
256.800	6.454	0.100
256.900	13.827	0.100
257.000	17.450	0.100
257.100	-0.951	0.100
257.200	3.517	0.100
257.300	4.316	0.100
257.400	14.459	0.100
257.500	4.110	0.100
257.600	-3.128	0.100
257.700	7.545	0.100
257.800	8.452	0.100
257.900	2.173	0.100
258.000	3.075	0.100
258.100	6.829	0.100
258.200	11.900	0.100
258.300	14.246	0.100
258.400	2.155	0.100
258.500	-1.563	0.100
258.600	15.457	0.100
258.700	7.430	0.100
258.800	7.329	0.100
258.900	11.686	0.100
259.000	14.271	0.100
259.100	8.807	0.100
259.200	8.273	0.100
259.300	1.539	0.100
259.400	3.884	0.100
259.500	7.076	0.100
259.600	3.165	0.100
259.700	7.502	0.100
259.800	16.222	0.100
259.900	11.023	0.100
260.000	5.405	0.100
260.100	9.817	0.100
260.200	12.246	0.100
260.300	7.783	0.100
260.400	0.772	0.100
260.500	8.900	0.100
260.600	4.813	0.100
260.700	2.921	0.100
260.800	2.193	0.100
260.900	6.863	0.100
261.000	6.694	0.100
261.100	0.954	0.100
261.200	8.635	0.100
261.300	10.531	0.100
261.400	-0.370	0.100
261.500	9.378	0.100
261.600	7.891	0.100
261.700	5.022	0.100
261.800	-5.468	0.100
261.900	10.174	0.100
262.000	8.814	0.100
262.100	4.207	0.100
262.200	10.420	0.100
262.300	2.522	0.100
262.400	4.192	0.100
262.500	5.833	0.100
262.600	12.473	0.100
262.700	2.506	0.100
262.800	2.066	0.100
262.900	2.495	0.100
263.000	8.272	0.100
263.100	8.458	0.100
263.200	10.117	0.100
263.300	-3.799	0.100
263.400	3.752	0.100
263.500	5.890	0.100
263.600	5.367	0.100
263.700	3.079	0.100
263.800	0.548	0.100
263.900	8.055	0.100
264.000	10.421	0.100
264.100	-1.968	0.100
264.200	11.037	0.100
264.300	4.769	0.100
264.400	1.964	0.100
264.500	5.240	0.100
264.600	14.112	0.100
264.700	7.661	0.100
264.800	11.637	0.100
264.900	1.626	0.100
265.000	-5.300	0.100
265.100	8.220	0.100
265.200	3.286	0.100
265.300	2.287	0.100
265.400	-4.597	0.100
265.500	7.342	0.100
265.600	4.359	0.100
265.700	9.756	0.100
265.800	6.734	0.100
265.900	4.161	0.100
266.000	6.678	0.100
266.100	1.534	0.100
266.200	6.809	0.100
266.300	4.068	0.100
266.400	-0.995	0.100
266.500	11.932	0.100
266.600	9.261	0.100
266.700	3.404	0.100
266.800	5.331	0.100
266.900	10.165	0.100
267.000	5.919	0.100
267.100	-0.227	0.100
267.200	12.168	0.100
267.300	3.683	0.100
267.400	2.686	0.100
267.500	6.940	0.100
267.600	3.955	0.100
267.700	2.177	0.100
267.800	-1.074	0.100
267.900	1.230	0.100
268.000	3.483	0.100
268.100	-1.458	0.100
268.200	-1.307	0.100
268.300	15.512	0.100
268.400	8.930	0.100
268.500	7.228	0.100
268.600	6.835	0.100
268.700	-1.052	0.100
268.800	-0.200	0.100
268.900	-0.213	0.100
269.000	1.354	0.100
269.100	5.533	0.100
269.200	4.856	0.100
269.300	-9.179	0.100
269.400	10.635	0.100
269.500	-0.881	0.100
269.600	7.982	0.100
269.700	7.120	0.100
269.800	-0.226	0.100
269.900	-0.153	0.100
270.000	-4.051	0.100
270.100	-5.243	0.100
270.200	4.789	0.100
270.300	4.616	0.100
270.400	-1.181	0.100
270.500	5.499	0.100
270.600	3.498	0.100
270.700	-2.558	0.100
270.800	3.517	0.100
270.900	3.540	0.100
271.000	-5.056	0.100
271.100	1.610	0.100
271.200	0.416	0.100
271.300	6.608	0.100
271.400	3.853	0.100
271.500	-0.347	0.100
271.600	-0.835	0.100
271.700	3.011	0.100
271.800	5.452	0.100
271.900	1.826	0.100
272.000	6.682	0.100
272.100	-4.881	0.100
272.200	-2.834	0.100
272.300	-0.131	0.100
272.400	16.818	0.100
272.500	0.676	0.100
272.600	-2.015	0.100
272.700	8.060	0.100
272.800	5.361	0.100
272.900	1.066	0.100
273.000	9.266	0.100
273.100	-1.606	0.100
273.200	-1.195	0.100
273.300	0.723	0.100
273.400	0.058	0.100
273.500	7.032	0.100
273.600	-0.370	0.100
273.700	1.389	0.100
273.800	3.095	0.100
273.900	10.355	0.100
274.000	-0.814	0.100
274.100	-5.331	0.100
274.200	-4.580	0.100
274.300	-1.717	0.100
274.400	9.420	0.100
274.500	-5.606	0.100
274.600	-9.603	0.100
274.700	8.919	0.100
274.800	2.698	0.100
274.900	5.719	0.100
275.000	2.295	0.100
275.100	-3.848	0.100
275.200	14.595	0.100
275.300	-1.009	0.100
275.400	-1.052	0.100
275.500	-4.641	0.100
275.600	-0.495	0.100
275.700	3.510	0.100
275.800	0.771	0.100
275.900	1.919	0.100
276.000	0.965	0.100
276.100	3.860	0.100
276.200	0.662	0.100
276.300	-3.977	0.100
276.400	-0.160	0.100
276.500	3.891	0.100
276.600	-2.138	0.100
276.700	0.075	0.100
276.800	-2.104	0.100
276.900	-7.046	0.100
277.000	-2.620	0.100
277.100	7.347	0.100
277.200	-1.264	0.100
277.300	5.444	0.100
277.400	2.189	0.100
277.500	-2.118	0.100
277.600	-7.164	0.100
277.700	1.891	0.100
277.800	3.560	0.100
277.900	-4.996	0.100
278.000	11.009	0.100
278.100	-0.553	0.100
278.200	8.901	0.100
278.300	5.730	0.100
278.400	-0.777	0.100
278.500	-6.755	0.100
278.600	1.593	0.100
278.700	-0.663	0.100
278.800	0.180	0.100
278.900	-4.581	0.100
279.000	12.412	0.100
279.100	2.412	0.100
279.200	-2.427	0.100
279.300	-11.821	0.100
279.400	-0.620	0.100
279.500	-1.431	0.100
279.600	-3.085	0.100
279.700	2.585	0.100
279.800	-3.859	0.100
279.900	1.087	0.100
280.000	4.057	0.100
280.100	-2.862	0.100
280.200	-7.717	0.100
280.300	-0.837	0.100
280.400	-3.086	0.100
280.500	3.787	0.100
280.600	-5.003	0.100
280.700	-6.081	0.100
280.800	-0.434	0.100
280.900	-5.513	0.100
281.000	-3.499	0.100
281.100	7.213	0.100
281.200	-3.976	0.100
281.300	-3.465	0.100
281.400	10.000	0.100
281.500	0.085	0.100
281.600	2.084	0.100
281.700	-7.176	0.100
281.800	-3.790	0.100
281.900	3.372	0.100
282.000	-4.118	0.100
282.100	1.566	0.100
282.200	2.648	0.100
282.300	0.529	0.100
282.400	0.857	0.100
282.500	-14.220	0.100
282.600	0.645	0.100
282.700	0.927	0.100
282.800	-8.837	0.100
282.900	3.370	0.100
283.000	2.064	0.100
283.100	-3.294	0.100
283.200	-6.554	0.100
283.300	1.964	0.100
283.400	1.139	0.100
283.500	0.624	0.100
283.600	2.703	0.100
283.700	-0.992	0.100
283.800	0.138	0.100
283.900	-1.002	0.100
284.000	1.117	0.100
284.100	-0.474	0.100
284.200	-11.619	0.100
284.300	2.965	0.100
284.400	3.631	0.100
284.500	0.034	0.100
284.600	-2.151	0.100
284.700	-3.525	0.100
284.800	0.612	0.100
284.900	-4.799	0.100
285.000	-3.902	0.100
285.100	2.054	0.100
285.200	-4.634	0.100
285.300	-1.409	0.100
285.400	-5.512	0.100
285.500	-0.411	0.100
285.600	-4.457	0.100
285.700	0.587	0.100
285.800	-1.958	0.100
285.900	1.479	0.100
286.000	-7.618	0.100
286.100	-5.013	0.100
286.200	0.227	0.100
286.300	-5.730	0.100
286.400	-1.636	0.100
286.500	-13.562	0.100
286.600	-10.942	0.100
286.700	-7.443	0.100
286.800	6.218	0.100
286.900	2.541	0.100
287.000	-7.497	0.100
287.100	-3.344	0.100
287.200	-5.939	0.100
287.300	-7.185	0.100
287.400	2.280	0.100
287.500	-0.792	0.100
287.600	-2.847	0.100
287.700	3.240	0.100
287.800	2.367	0.100
287.900	-6.819	0.100
288.000	2.439	0.100
288.100	-2.267	0.100
288.200	5.995	0.100
288.300	1.772	0.100
288.400	-4.799	0.100
288.500	-4.688	0.100
288.600	0.157	0.100
288.700	3.012	0.100
288.800	-2.563	0.100
288.900	-8.120	0.100
289.000	2.341	0.100
289.100	-2.996	0.100
289.200	-2.752	0.100
289.300	-1.306	0.100
289.400	-0.443	0.100
289.500	-12.233	0.100
289.600	-4.381	0.100
289.700	-0.756	0.100
289.800	2.263	0.100
289.900	-1.896	0.100
290.000	-2.323	0.100
290.100	-4.407	0.100
290.200	2.272	0.100
290.300	-0.591	0.100
290.400	-6.177	0.100
290.500	-0.510	0.100
290.600	-11.005	0.100
290.700	-8.903	0.100
290.800	-5.422	0.100
290.900	-2.907	0.100
291.000	0.481	0.100
291.100	0.121	0.100
291.200	-9.732	0.100
291.300	-0.553	0.100
291.400	-4.353	0.100
291.500	-2.929	0.100
291.600	0.180	0.100
291.700	-4.185	0.100
291.800	-0.299	0.100
291.900	-3.445	0.100
292.000	-11.666	0.100
292.100	-2.914	0.100
292.200	-4.690	0.100
292.300	-4.944	0.100
292.400	3.074	0.100
292.500	-10.163	0.100
292.600	-2.416	0.100
292.700	-4.032	0.100
292.800	-3.893	0.100
292.900	-2.034	0.100
293.000	-2.840	0.100
293.100	2.014	0.100
293.200	-4.440	0.100
293.300	-10.207	0.100
293.400	-1.108	0.100
293.500	-8.371	0.100
293.600	-7.550	0.100
293.700	-3.417	0.100
293.800	-7.571	0.100
293.900	-3.187	0.100
294.000	-1.036	0.100
294.100	-5.600	0.100
294.200	-6.624	0.100
294.300	-0.153	0.100
294.400	-2.945	0.100
294.500	1.286	0.100
294.600	-9.151	0.100
294.700	-2.762	0.100
294.800	-3.550	0.100
294.900	-9.839	0.100
295.000	-5.102	0.100
295.100	-10.610	0.100
295.200	-0.466	0.100
295.300	-3.934	0.100
295.400	-12.379	0.100
295.500	-1.151	0.100
295.600	-2.724	0.100
295.700	-4.620	0.100
295.800	-4.771	0.100
295.900	-3.246	0.100
296.000	-2.428	0.100
296.100	-4.035	0.100
296.200	-3.142	0.100
296.300	9.051	0.100
296.400	-0.479	0.100
296.500	-6.271	0.100
296.600	-10.933	0.100
296.700	-8.828	0.100
296.800	-6.244	0.100
296.900	-16.552	0.100
297.000	-7.921	0.100
297.100	9.828	0.100
297.200	-4.166	0.100
297.300	-2.790	0.100
297.400	-5.929	0.100
297.500	1.611	0.100
297.600	0.858	0.100
297.700	-5.300	0.100
297.800	-2.557	0.100
297.900	-9.750	0.100
298.000	-2.872	0.100
298.100	-1.604	0.100
298.200	-8.563	0.100
298.300	-8.439	0.100
298.400	1.898	0.100
298.500	1.850	0.100
298.600	-5.381	0.100
298.700	-17.463	0.100
298.800	-3.641	0.100
298.900	0.378	0.100
299.000	-3.780	0.100
299.100	-5.201	0.100
299.200	-8.235	0.100
299.300	1.325	0.100
299.400	-2.985	0.100
299.500	1.211	0.100
299.600	-1.631	0.100
299.700	-3.557	0.100
299.800	-9.461	0.100
299.900	-0.584	0.100
300.000	1.194	0.100
300.100	-5.765	0.100
300.200	-11.372	0.100
300.300	-0.983	0.100
300.400	3.896	0.100
300.500	-5.832	0.100
300.600	-10.114	0.100
300.700	-1.453	0.100
300.800	-3.894	0.100
300.900	-0.128	0.100
301.000	-0.796	0.100
301.100	-5.712	0.100
301.200	-2.967	0.100
301.300	1.811	0.100
301.400	4.431	0.100
301.500	-7.210	0.100
301.600	-7.718	0.100
301.700	-3.149	0.100
301.800	-4.505	0.100
301.900	-5.958	0.100
302.000	-3.710	0.100
302.100	-3.640	0.100
302.200	-16.450	0.100
302.300	-3.513	0.100
302.400	6.215	0.100
302.500	-9.858	0.100
302.600	-5.663	0.100
302.700	-4.162	0.100
302.800	-2.271	0.100
302.900	-10.970	0.100
303.000	-3.763	0.100
303.100	-3.619	0.100
303.200	-4.233	0.100
303.300	-3.708	0.100
303.400	-1.430	0.100
303.500	4.568	0.100
303.600	-6.478	0.100
303.700	2.113	0.100
303.800	-10.820	0.100
303.900	-7.606	0.100
304.000	-10.214	0.100
304.100	-0.194	0.100
304.200	1.352	0.100
304.300	-7.815	0.100
304.400	-10.192	0.100
304.500	-3.499	0.100
304.600	-0.447	0.100
304.700	-3.371	0.100
304.800	-8.667	0.100
304.900	-1.928	0.100
305.000	-4.913	0.100
305.100	-13.634	0.100
305.200	-5.957	0.100
305.300	-3.877	0.100
305.400	-2.082	0.100
305.500	-6.779	0.100
305.600	-0.503	0.100
305.700	-6.139	0.100
305.800	5.451	0.100
305.900	-0.638	0.100
306.000	-3.685	0.100
306.100	-15.087	0.100
306.200	-7.156	0.100
306.300	0.992	0.100
306.400	-4.727	0.100
306.500	-9.765	0.100
306.600	-11.582	0.100
306.700	0.700	0.100
306.800	-4.614	0.100
306.900	-8.228	0.100
307.000	1.450	0.100
307.100	-1.487	0.100
307.200	-0.491	0.100
307.300	-8.911	0.100
307.400	-8.458	0.100
307.500	-9.412	0.100
307.600	-6.109	0.100
307.700	-11.417	0.100
307.800	-0.231	0.100
307.900	2.574	0.100
308.000	1.811	0.100
308.100	-3.881	0.100
308.200	-9.121	0.100
308.300	1.511	0.100
308.400	0.172	0.100
308.500	-3.635	0.100
308.600	-12.377	0.100
308.700	-7.136	0.100
308.800	-16.651	0.100
308.900	-15.019	0.100
309.000	3.728	0.100
309.100	5.368	0.100
309.200	-6.453	0.100
309.300	-8.447	0.100
309.400	-4.103	0.100
309.500	-2.760	0.100
309.600	-5.330	0.100
309.700	-12.620	0.100
309.800	-6.426	0.100
309.900	-5.214	0.100
310.000	-4.361	0.100
310.100	-5.157	0.100
310.200	-13.132	0.100
310.300	-6.094	0.100
310.400	-9.940	0.100
310.500	-5.700	0.100
310.600	5.597	0.100
310.700	-1.574	0.100
310.800	-9.284	0.100
310.900	-12.810	0.100
311.000	-3.691	0.100
311.100	6.716	0.100
311.200	-11.567	0.100
311.300	-10.405	0.100
311.400	-5.105	0.100
311.500	-9.541	0.100
311.600	-3.837	0.100
311.700	0.991	0.100
311.800	-9.806	0.100
311.900	-9.378	0.100
312.000	-7.111	0.100
312.100	-3.200	0.100
312.200	-9.664	0.100
312.300	-2.821	0.100
312.400	-7.035	0.100
312.500	-1.267	0.100
312.600	-12.878	0.100
312.700	-9.953	0.100
312.800	-7.764	0.100
312.900	-5.747	0.100
313.000	0.402	0.100
313.100	-4.040	0.100
313.200	-3.095	0.100
313.300	-1.515	0.100
313.400	-6.896	0.100
313.500	5.147	0.100
313.600	-3.220	0.100
313.700	2.487	0.100
313.800	-6.988	0.100
313.900	-7.584	0.100
314.000	-11.491	0.100
314.100	2.236	0.100
314.200	-3.363	0.100
314.300	-6.808	0.100
314.400	-10.443	0.100
314.500	-0.925	0.100
314.600	-5.020	0.100
314.700	-9.297	0.100
314.800	-5.656	0.100
314.900	-9.436	0.100
315.000	-2.334	0.100
315.100	-2.913	0.100
315.200	-11.891	0.100
315.300	-9.100	0.100
315.400	-5.961	0.100
315.500	-4.827	0.100
315.600	-10.608	0.100
315.700	6.478	0.100
315.800	-12.663	0.100
315.900	-13.453	0.100
316.000	-4.213	0.100
316.100	-5.488	0.100
316.200	-2.289	0.100
316.300	-11.719	0.100
316.400	-8.290	0.100
316.500	-5.943	0.100
316.600	-7.392	0.100
316.700	-6.753	0.100
316.800	3.288	0.100
316.900	-8.505	0.100
317.000	-1.077	0.100
317.100	-13.442	0.100
317.200	-3.095	0.100
317.300	-7.012	0.100
317.400	-7.954	0.100
317.500	-12.833	0.100
317.600	-8.381	0.100
317.700	-6.948	0.100
317.800	-8.371	0.100
317.900	-6.213	0.100
318.000	8.360	0.100
318.100	-3.290	0.100
318.200	-3.856	0.100
318.300	-3.930	0.100
318.400	-4.580	0.100
318.500	-11.836	0.100
318.600	-7.142	0.100
318.700	-4.437	0.100
318.800	0.535	0.100
318.900	-4.377	0.100
319.000	-6.138	0.100
319.100	-12.760	0.100
319.200	-5.486	0.100
319.300	-0.431	0.100
319.400	-1.911	0.100
319.500	-9.484	0.100
319.600	-7.134	0.100
319.700	-6.800	0.100
319.800	-2.042	0.100
319.900	-3.182	0.100
320.000	-1.078	0.100
320.100	-5.168	0.100
320.200	1.658	0.100
320.300	-4.130	0.100
320.400	-5.671	0.100
320.500	-9.808	0.100
320.600	-7.552	0.100
320.700	-2.554	0.100
320.800	-13.649	0.100
320.900	-2.548	0.100
321.000	-7.860	0.100
321.100	-6.877	0.100
321.200	-6.639	0.100
321.300	-2.542	0.100
321.400	-11.735	0.100
321.500	-10.136	0.100
321.600	-7.457	0.100
321.700	-4.048	0.100
321.800	-11.730	0.100
321.900	-11.712	0.100
322.000	-3.458	0.100
322.100	-2.883	0.100
322.200	-7.321	0.100
322.300	-10.645	0.100
322.400	-6.874	0.100
322.500	-10.299	0.100
322.600	-0.990	0.100
322.700	-8.236	0.100
322.800	-4.051	0.100
322.900	-7.673	0.100
323.000	-10.270	0.100
323.100	-6.373	0.100
323.200	-4.113	0.100
323.300	-11.754	0.100
323.400	-0.163	0.100
323.500	-7.262	0.100
323.600	-9.030	0.100
323.700	-10.314	0.100
323.800	-3.128	0.100
323.900	-4.444	0.100
324.000	-1.577	0.100
324.100	-2.265	0.100
324.200	1.655	0.100
324.300	-10.170	0.100
324.400	-10.535	0.100
324.500	-8.448	0.100
324.600	-0.480	0.100
324.700	-6.410	0.100
324.800	-10.893	0.100
324.900	-4.505	0.100
325.000	-9.333	0.100
325.100	-4.464	0.100
325.200	-7.791	0.100
325.300	-8.758	0.100
325.400	-6.812	0.100
325.500	-11.341	0.100
325.600	-1.525	0.100
325.700	2.386	0.100
325.800	-12.850	0.100
325.900	-7.114	0.100
326.000	-12.900	0.100
326.100	-3.255	0.100
326.200	-8.331	0.100
326.300	-5.771	0.100
326.400	-3.722	0.100
326.500	-5.835	0.100
326.600	-4.493	0.100
326.700	-1.825	0.100
326.800	-8.672	0.100
326.900	-15.926	0.100
327.000	-7.076	0.100
327.100	0.265	0.100
327.200	4.162	0.100
327.300	-3.337	0.100
327.400	-7.529	0.100
327.500	-5.036	0.100
327.600	-2.551	0.100
327.700	-5.820	0.100
327.800	-9.441	0.100
327.900	-4.222	0.100
328.000	-7.049	0.100
328.100	-6.422	0.100
328.200	-6.319	0.100
328.300	-7.104	0.100
328.400	-3.148	0.100
328.500	-3.318	0.100
328.600	-0.614	0.100
328.700	-5.899	0.100
328.800	-19.043	0.100
328.900	-5.728	0.100
329.000	-11.696	0.100
329.100	-6.686	0.100
329.200	-17.471	0.100
329.300	-5.172	0.100
329.400	0.926	0.100
329.500	-5.749	0.100
329.600	-4.256	0.100
329.700	4.816	0.100
329.800	-8.495	0.100
329.900	-12.997	0.100
330.000	0.964	0.100
330.100	-2.544	0.100
330.200	-4.199	0.100
330.300	-5.162	0.100
330.400	-12.753	0.100
330.500	-1.440	0.100
330.600	-4.322	0.100
330.700	-5.068	0.100
330.800	-5.478	0.100
330.900	-7.706	0.100
331.000	-2.277	0.100
331.100	-3.777	0.100
331.200	-1.320	0.100
331.300	-9.284	0.100
331.400	-6.742	0.100
331.500	-2.303	0.100
331.600	-1.231	0.100
331.700	-0.379	0.100
331.800	-5.918	0.100
331.900	1.923	0.100
332.000	4.148	0.100
332.100	1.349	0.100
332.200	1.341	0.100
332.300	-3.342	0.100
332.400	0.210	0.100
332.500	-2.821	0.100
332.600	1.934	0.100
332.700	2.243	0.100
332.800	-1.081	0.100
332.900	1.233	0.100
333.000	-3.733	0.100
333.100	3.135	0.100
333.200	8.356	0.100
333.300	-3.198	0.100
333.400	-1.836	0.100
333.500	-2.182	0.100
333.600	4.369	0.100
333.700	3.486	0.100
333.800	9.594	0.100
333.900	-1.399	0.100
334.000	0.162	0.100
334.100	0.688	0.100
334.200	0.886	0.100
334.300	3.917	0.100
334.400	6.859	0.100
334.500	5.390	0.100
334.600	-1.866	0.100
334.700	3.557	0.100
334.800	1.138	0.100
334.900	1.931	0.100
335.000	1.742	0.100
335.100	-2.423	0.100
335.200	5.620	0.100
335.300	1.170	0.100
335.400	0.627	0.100
335.500	0.648	0.100
335.600	-2.110	0.100
335.700	0.341	0.100
335.800	-3.663	0.100
335.900	2.172	0.100
336.000	5.474	0.100
336.100	0.229	0.100
336.200	1.363	0.100
336.300	-0.562	0.100
336.400	-4.650	0.100
336.500	3.401	0.100
336.600	-8.229	0.100
336.700	3.970	0.100
336.800	4.575	0.100
336.900	6.043	0.100
337.000	-1.239	0.100
337.100	3.833	0.100
337.200	-2.107	0.100
337.300	-9.758	0.100
337.400	4.699	0.100
337.500	8.865	0.100
337.600	-7.569	0.100
337.700	8.705	0.100
337.800	8.430	0.100
337.900	12.949	0.100
338.000	-0.165	0.100
338.100	-5.179	0.100
338.200	2.105	0.100
338.300	1.131	0.100
338.400	1.788	0.100
338.500	7.733	0.100
338.600	-0.731	0.100
338.700	2.388	0.100
338.800	4.675	0.100
338.900	3.448	0.100
339.000	11.306	0.100
339.100	4.144	0.100
339.200	-2.462	0.100
339.300	7.765	0.100
339.400	-2.025	0.100
339.500	6.146	0.100
339.600	6.162	0.100
339.700	3.661	0.100
339.800	-8.439	0.100
339.900	10.947	0.100
340.000	1.276	0.100
340.100	-3.518	0.100
340.200	9.816	0.100
340.300	-1.578	0.100
340.400	1.330	0.100
340.500	7.512	0.100
340.600	3.077	0.100
340.700	5.045	0.100
340.800	6.961	0.100
340.900	7.228	0.100
341.000	8.174	0.100
341.100	1.292	0.100
341.200	-3.651	0.100
341.300	-3.567	0.100
341.400	7.019	0.100
341.500	9.808	0.100
341.600	4.105	0.100
341.700	13.411	0.100
341.800	2.366	0.100
341.900	-5.031	0.100
342.000	2.772	0.100
342.100	4.174	0.100
342.200	8.903	0.100
342.300	8.649	0.100
342.400	1.318	0.100
342.500	-0.845	0.100
342.600	8.877	0.100
342.700	7.525	0.100
342.800	4.863	0.100
342.900	2.360	0.100
343.000	1.899	0.100
343.100	14.224	0.100
343.200	10.019	0.100
343.300	9.129	0.100
343.400	3.826	0.100
343.500	5.493	0.100
343.600	1.324	0.100
343.700	-2.371	0.100
343.800	3.362	0.100
343.900	8.658	0.100
344.000	2.998	0.100
344.100	-2.745	0.100
344.200	11.333	0.100
344.300	3.477	0.100
344.400	10.308	0.100
344.500	8.097	0.100
344.600	5.291	0.100
344.700	2.682	0.100
344.800	9.956	0.100
344.900	8.705	0.100
345.000	13.067	0.100
345.100	13.078	0.100
345.200	-3.828	0.100
345.300	4.791	0.100
345.400	5.598	0.100
345.500	10.950	0.100
345.600	11.464	0.100
345.700	10.208	0.100
345.800	10.029	0.100
345.900	4.160	0.100
346.000	10.219	0.100
346.100	16.184	0.100
346.200	0.842	0.100
346.300	3.717	0.100
346.400	18.769	0.100
346.500	10.724	0.100
346.600	8.035	0.100
346.700	17.606	0.100
346.800	1.239	0.100
346.900	2.314	0.100
347.000	13.949	0.100
347.100	10.492	0.100
347.200	5.692	0.100
347.300	4.138	0.100
347.400	7.808	0.100
347.500	13.598	0.100
347.600	7.720	0.100
347.700	4.375	0.100
347.800	1.954	0.100
347.900	10.559	0.100
348.000	9.695	0.100
348.100	4.546	0.100
348.200	12.532	0.100
348.300	16.335	0.100
348.400	6.318	0.100
348.500	7.090	0.100
348.600	9.152	0.100
348.700	11.030	0.100
348.800	5.594	0.100
348.900	7.593	0.100
349.000	9.718	0.100
349.100	1.682	0.100
349.200	8.796	0.100
349.300	13.004	0.100
349.400	12.897	0.100
349.500	7.869	0.100
349.600	19.792	0.100
349.700	9.854	0.100
349.800	10.071	0.100
349.900	7.303	0.100
350.000	5.892	0.100
350.100	8.110	0.100
350.200	7.282	0.100
350.300	2.593	0.100
350.400	7.903	0.100
350.500	14.044	0.100
350.600	7.714	0.100
350.700	12.745	0.100
350.800	2.271	0.100
350.900	11.858	0.100
351.000	12.299	0.100
351.100	3.923	0.100
351.200	13.294	0.100
351.300	14.331	0.100
351.400	6.000	0.100
351.500	11.696	0.100
351.600	2.527	0.100
351.700	7.462	0.100
351.800	11.309	0.100
351.900	5.946	0.100
352.000	8.645	0.100
352.100	-0.262	0.100
352.200	11.584	0.100
352.300	6.548	0.100
352.400	5.143	0.100
352.500	10.178	0.100
352.600	11.226	0.100
352.700	14.891	0.100
352.800	3.890	0.100
352.900	7.154	0.100
353.000	11.364	0.100
353.100	6.876	0.100
353.200	8.720	0.100
353.300	12.748	0.100
353.400	8.315	0.100
353.500	5.419	0.100
353.600	4.852	0.100
353.700	14.446	0.100
353.800	0.682	0.100
353.900	13.049	0.100
354.000	18.767	0.100
354.100	19.358	0.100
354.200	12.605	0.100
354.300	5.765	0.100
354.400	8.318	0.100
354.500	7.390	0.100
354.600	7.814	0.100
354.700	10.914	0.100
354.800	14.423	0.100
354.900	7.539	0.100
355.000	10.109	0.100
355.100	9.619	0.100
355.200	9.511	0.100
355.300	9.503	0.100
355.400	13.635	0.100
355.500	3.683	0.100
355.600	15.254	0.100
355.700	10.158	0.100
355.800	16.344	0.100
355.900	14.481	0.100
356.000	17.690	0.100
356.100	11.908	0.100
356.200	19.731	0.100
356.300	14.769	0.100
356.400	20.165	0.100
356.500	10.655	0.100
356.600	14.616	0.100
356.700	12.444	0.100
356.800	14.065	0.100
356.900	4.911	0.100
357.000	7.379	0.100
357.100	11.417	0.100
357.200	8.244	0.100
357.300	15.009	0.100
357.400	4.767	0.100
357.500	19.863	0.100
357.600	14.957	0.100
357.700	16.206	0.100
357.800	7.466	0.100
357.900	13.196	0.100
358.000	14.036	0.100
358.100	18.500	0.100
358.200	13.358	0.100
358.300	14.416	0.100
358.400	6.881	0.100
358.500	8.796	0.100
358.600	11.977	0.100
358.700	17.355	0.100
358.800	16.658	0.100
358.900	11.044	0.100
359.000	15.319	0.100
359.100	13.745	0.100
359.200	12.831	0.100
359.300	13.466	0.100
359.400	15.390	0.100
359.500	10.793	0.100
359.600	17.449	0.100
359.700	13.189	0.100
359.800	5.940	0.100
359.900	7.700	0.100
360.000	19.917	0.100
360.100	17.077	0.100
360.200	9.657	0.100
360.300	8.805	0.100
360.400	23.478	0.100
360.500	19.706	0.100
360.600	20.810	0.100
360.700	11.805	0.100
360.800	10.112	0.100
360.900	16.904	0.100
361.000	17.091	0.100
361.100	12.664	0.100
361.200	13.070	0.100
361.300	14.924	0.100
361.400	14.542	0.100
361.500	16.374	0.100
361.600	17.591	0.100
361.700	13.193	0.100
361.800	4.837	0.100
361.900	15.903	0.100
362.000	17.501	0.100
362.100	9.918	0.100
362.200	13.870	0.100
362.300	12.711	0.100
362.400	10.719	0.100
362.500	19.157	0.100
362.600	12.707	0.100
362.700	12.049	0.100
362.800	14.472	0.100
362.900	8.901	0.100
363.000	10.379	0.100
363.100	4.517	0.100
363.200	17.309	0.100
363.300	13.221	0.100
363.400	11.043	0.100
363.500	23.301	0.100
363.600	16.933	0.100
363.700	14.780	0.100
363.800	11.765	0.100
363.900	17.672	0.100
364.000	11.369	0.100
364.100	14.421	0.100
364.200	14.732	0.100
364.300	23.435	0.100
364.400	12.061	0.100
364.500	18.972	0.100
364.600	12.620	0.100
364.700	6.045	0.100
364.800	17.579	0.100
364.900	17.553	0.100
365.000	13.857	0.100
365.100	18.019	0.100
365.200	15.564	0.100
365.300	20.879	0.100
365.400	18.230	0.100
365.500	18.690	0.100
365.600	9.487	0.100
365.700	10.339	0.100
365.800	22.460	0.100
365.900	14.244	0.100
366.000	17.321	0.100
366.100	18.941	0.100
366.200	13.650	0.100
366.300	14.789	0.100
366.400	13.498	0.100
366.500	18.359	0.100
366.600	19.388	0.100
366.700	13.845	0.100
366.800	11.769	0.100
366.900	14.568	0.100
367.000	8.638	0.100
367.100	21.576	0.100
367.200	15.103	0.100
367.300	18.903	0.100
367.400	12.988	0.100
367.500	15.873	0.100
367.600	21.868	0.100
367.700	7.581	0.100
367.800	19.473	0.100
367.900	18.011	0.100
368.000	14.753	0.100
368.100	20.604	0.100
368.200	20.006	0.100
368.300	14.083	0.100
368.400	14.830	0.100
368.500	17.620	0.100
368.600	14.691	0.100
368.700	18.108	0.100
368.800	11.555	0.100
368.900	14.872	0.100
369.000	11.401	0.100
369.100	21.828	0.100
369.200	13.827	0.100
369.300	21.782	0.100
369.400	9.265	0.100
369.500	17.020	0.100
369.600	13.192	0.100
369.700	18.111	0.100
369.800	15.361	0.100
369.900	5.095	0.100
370.000	17.988	0.100
370.100	18.485	0.100
370.200	4.380	0.100
370.300	17.298	0.100
370.400	17.169	0.100
370.500	16.981	0.100
370.600	18.275	0.100
370.700	16.946	0.100
370.800	20.014	0.100
370.900	14.143	0.100
371.000	15.070	0.100
371.100	10.840	0.100
371.200	23.088	0.100
371.300	8.890	0.100
371.400	7.183	0.100
371.500	25.401	0.100
371.600	20.985	0.100
371.700	10.540	0.100
371.800	15.282	0.100
371.900	20.543	0.100
372.000	8.813	0.100
372.100	12.399	0.100
372.200	19.169	0.100
372.300	15.267	0.100
372.400	16.365	0.100
372.500	14.718	0.100
372.600	20.876	0.100
372.700	17.666	0.100
372.800	13.715	0.100
372.900	10.551	0.100
373.000	22.942	0.100
373.100	14.401	0.100
373.200	22.897	0.100
373.300	22.768	0.100
373.400	19.804	0.100
373.500	17.074	0.100
373.600	18.716	0.100
373.700	19.742	0.100
373.800	3.771	0.100
373.900	27.410	0.100
374.000	12.453	0.100
374.100	18.615	0.100
374.200	7.299	0.100
374.300	26.198	0.100
374.400	17.590	0.100
374.500	21.525	0.100
374.600	18.946	0.100
374.700	12.741	0.100
374.800	16.347	0.100
374.900	0.058	0.100
375.000	16.224	0.100
375.100	24.683	0.100
375.200	23.782	0.100
375.300	29.956	0.100
375.400	19.547	0.100
375.500	20.566	0.100
375.600	17.300	0.100
375.700	21.912	0.100
375.800	13.614	0.100
375.900	20.122	0.100
376.000	9.976	0.100
376.100	14.523	0.100
376.200	22.652	0.100
376.300	13.638	0.100
376.400	16.851	0.100
376.500	11.095	0.100
376.600	12.862	0.100
376.700	18.349	0.100
376.800	14.536	0.100
376.900	16.754	0.100
377.000	14.734	0.100
377.100	20.718	0.100
377.200	16.796	0.100
377.300	15.477	0.100
377.400	14.096	0.100
377.500	26.796	0.100
377.600	24.351	0.100
377.700	20.554	0.100
377.800	15.301	0.100
377.900	19.263	0.100
378.000	19.091	0.100
378.100	18.214	0.100
378.200	23.644	0.100
378.300	12.304	0.100
378.400	19.340	0.100
378.500	15.373	0.100
378.600	20.554	0.100
378.700	13.660	0.100
378.800	10.489	0.100
378.900	12.017	0.100
379.000	23.384	0.100
379.100	15.624	0.100
379.200	18.561	0.100
379.300	24.204	0.100
379.400	20.076	0.100
379.500	20.654	0.100
379.600	19.922	0.100
379.700	22.208	0.100
379.800	20.726	0.100
379.900	17.618	0.100
380.000	15.673	0.100
380.100	20.824	0.100
380.200	14.315	0.100
380.300	14.736	0.100
380.400	21.576	0.100
380.500	19.397	0.100
380.600	15.711	0.100
380.700	15.823	0.100
380.800	16.848	0.100
380.900	24.680	0.100
381.000	12.666	0.100
381.100	21.870	0.100
381.200	26.696	0.100
381.300	19.558	0.100
381.400	17.993	0.100
381.500	18.123	0.100
381.600	18.345	0.100
381.700	10.742	0.100
381.800	15.723	0.100
381.900	17.760	0.100
382.000	23.592	0.100
382.100	18.015	0.100
382.200	12.332	0.100
382.300	10.767	0.100
382.400	25.708	0.100
382.500	21.765	0.100
382.600	17.754	0.100
382.700	13.052	0.100
382.800	14.290	0.100
382.900	20.411	0.100
383.000	28.155	0.100
383.100	18.765	0.100
383.200	18.008	0.100
383.300	24.313	0.100
383.400	23.344	0.100
383.500	17.707	0.100
383.600	21.673	0.100
383.700	23.852	0.100
383.800	12.839	0.100
383.900	25.993	0.100
384.000	22.942	0.100
384.100	22.861	0.100
384.200	12.920	0.100
384.300	24.680	0.100
384.400	18.536	0.100
384.500	15.674	0.100
384.600	19.251	0.100
384.700	19.400	0.100
384.800	21.771	0.100
384.900	24.355	0.100
385.000	13.385	0.100
385.100	16.060	0.100
385.200	13.005	0.100
385.300	18.103	0.100
385.400	14.724	0.100
385.500	15.504	0.100
385.600	19.597	0.100
385.700	20.043	0.100
385.800	21.436	0.100
385.900	19.493	0.100
386.000	25.717	0.100
386.100	24.936	0.100
386.200	24.357	0.100
386.300	14.755	0.100
386.400	22.658	0.100
386.500	23.294	0.100
386.600	28.564	0.100
386.700	16.230	0.100
386.800	18.147	0.100
386.900	28.635	0.100
387.000	16.995	0.100
387.100	19.382	0.100
387.200	21.217	0.100
387.300	21.133	0.100
387.400	23.490	0.100
387.500	24.403	0.100
387.600	20.536	0.100
387.700	15.381	0.100
387.800	22.008	0.100
387.900	17.309	0.100
388.000	19.402	0.100
388.100	25.019	0.100
388.200	17.396	0.100
388.300	19.507	0.100
388.400	24.655	0.100
388.500	15.608	0.100
388.600	28.470	0.100
388.700	26.053	0.100
388.800	14.359	0.100
388.900	14.973	0.100
389.000	23.267	0.100
389.100	19.783	0.100
389.200	14.016	0.100
389.300	17.017	0.100
389.400	22.766	0.100
389.500	20.937	0.100
389.600	15.892	0.100
389.700	16.112	0.100
389.800	19.315	0.100
389.900	18.796	0.100
390.000	20.409	0.100
390.100	16.900	0.100
390.200	23.101	0.100
390.300	14.778	0.100
390.400	20.946	0.100
390.500	15.528	0.100
390.600	25.664	0.100
390.700	18.410	0.100
390.800	18.496	0.100
390.900	15.113	0.100
391.000	20.309	0.100
391.100	16.774	0.100
391.200	17.614	0.100
391.300	15.142	0.100
391.400	15.577	0.100
391.500	13.645	0.100
391.600	15.916	0.100
391.700	8.461	0.100
391.800	7.335	0.100
391.900	8.851	0.100
392.000	20.197	0.100
392.100	18.828	0.100
392.200	14.187	0.100
392.300	3.045	0.100
392.400	24.026	0.100
392.500	16.453	0.100
392.600	9.732	0.100
392.700	8.582	0.100
392.800	11.324	0.100
392.900	2.994	0.100
393.000	23.129	0.100
393.100	11.055	0.100
393.200	10.252	0.100
393.300	14.828	0.100
393.400	11.932	0.100
393.500	19.428	0.100
393.600	12.542	0.100
393.700	11.474	0.100
393.800	17.929	0.100
393.900	10.352	0.100
394.000	0.817	0.100
394.100	6.983	0.100
394.200	13.377	0.100
394.300	14.927	0.100
394.400	18.469	0.100
394.500	10.968	0.100
394.600	11.029	0.100
394.700	13.328	0.100
394.800	12.286	0.100
394.900	7.686	0.100
395.000	10.690	0.100
395.100	15.287	0.100
395.200	13.724	0.100
395.300	9.395	0.100
395.400	14.983	0.100
395.500	1.547	0.100
395.600	17.407	0.100
395.700	10.410	0.100
395.800	12.836	0.100
395.900	9.557	0.100
396.000	13.739	0.100
396.100	8.026	0.100
396.200	14.766	0.100
396.300	18.258	0.100
396.400	13.637	0.100
396.500	16.445	0.100
396.600	11.402	0.100
396.700	11.841	0.100
396.800	16.808	0.100
396.900	12.720	0.100
397.000	11.002	0.100
397.100	11.361	0.100
397.200	7.246	0.100
397.300	17.103	0.100
397.400	12.265	0.100
397.500	12.786	0.100
397.600	6.545	0.100
397.700	11.960	0.100
397.800	8.581	0.100
397.900	11.381	0.100
398.000	7.602	0.100
398.100	5.132	0.100
398.200	7.947	0.100
398.300	14.332	0.100
398.400	15.175	0.100
398.500	10.783	0.100
398.600	11.152	0.100
398.700	14.406	0.100
398.800	8.236	0.100
398.900	7.022	0.100
399.000	12.940	0.100
399.100	16.271	0.100
399.200	10.535	0.100
399.300	14.715	0.100
399.400	16.587	0.100
399.500	10.987	0.100
399.600	-2.359	0.100
399.700	10.519	0.100
399.800	12.007	0.100
399.900	19.114	0.100
400.000	6.571	0.100
400.100	4.709	0.100
400.200	6.740	0.100
400.300	-2.356	0.100
400.400	12.963	0.100
400.500	12.529	0.100
400.600	8.925	0.100
400.700	15.738	0.100
400.800	7.744	0.100
400.900	8.287	0.100
401.000	14.523	0.100
401.100	8.018	0.100
401.200	5.433	0.100
401.300	-3.568	0.100
401.400	11.808	0.100
401.500	19.448	0.100
401.600	16.050	0.100
401.700	9.241	0.100
401.800	8.342	0.100
401.900	15.447	0.100
402.000	8.089	0.100
402.100	9.053	0.100
402.200	4.135	0.100
402.300	12.445	0.100
402.400	1.371	0.100
402.500	-2.822	0.100
402.600	7.110	0.100
402.700	5.458	0.100
402.800	4.994	0.100
402.900	22.453	0.100
403.000	8.303	0.100
403.100	11.318	0.100
403.200	11.233	0.100
403.300	15.718	0.100
403.400	4.846	0.100
403.500	13.942	0.100
403.600	5.787	0.100
403.700	13.474	0.100
403.800	4.491	0.100
403.900	2.324	0.100
404.000	6.864	0.100
404.100	8.663	0.100
404.200	6.188	0.100
404.300	9.650	0.100
404.400	14.232	0.100
404.500	5.192	0.100
404.600	2.594	0.100
404.700	13.405	0.100
404.800	9.874	0.100
404.900	5.643	0.100
405.000	1.228	0.100
405.100	9.937	0.100
405.200	1.225	0.100
405.300	10.852	0.100
405.400	15.663	0.100
405.500	2.800	0.100
405.600	8.060	0.100
405.700	15.958	0.100
405.800	10.394	0.100
405.900	2.892	0.100
406.000	11.852	0.100
406.100	1.214	0.100
406.200	-0.634	0.100
406.300	6.612	0.100
406.400	3.874	0.100
406.500	4.090	0.100
406.600	3.188	0.100
406.700	6.189	0.100
406.800	13.438	0.100
406.900	11.059	0.100
407.000	3.720	0.100
407.100	10.357	0.100
407.200	10.857	0.100
407.300	4.843	0.100
407.400	8.016	0.100
407.500	4.064	0.100
407.600	11.904	0.100
407.700	11.540	0.100
407.800	4.444	0.100
407.900	6.902	0.100
408.000	-2.140	0.100
408.100	11.167	0.100
408.200	4.243	0.100
408.300	12.270	0.100
408.400	11.071	0.100
408.500	-0.927	0.100
408.600	11.576	0.100
408.700	2.934	0.100
408.800	8.310	0.100
408.900	10.370	0.100
409.000	-3.996	0.100
409.100	5.789	0.100
409.200	-3.470	0.100
409.300	9.468	0.100
409.400	5.236	0.100
409.500	6.208	0.100
409.600	6.423	0.100
409.700	3.971	0.100
409.800	0.749	0.100
409.900	3.419	0.100
410.000	5.049	0.100
410.100	11.004	0.100
410.200	7.208	0.100
410.300	-0.901	0.100
410.400	3.949	0.100
410.500	-1.556	0.100
410.600	12.263	0.100
410.700	3.680	0.100
410.800	-1.295	0.100
410.900	0.750	0.100
411.000	9.830	0.100
411.100	4.537	0.100
411.200	3.654	0.100
411.300	-1.888	0.100
411.400	10.471	0.100
411.500	4.189	0.100
411.600	-1.424	0.100
411.700	6.774	0.100
411.800	9.952	0.100
411.900	-0.306	0.100
412.000	6.051	0.100
412.100	1.195	0.100
412.200	-0.108	0.100
412.300	1.151	0.100
412.400	-2.316	0.100
412.500	6.278	0.100
412.600	-1.435	0.100
412.700	-6.164	0.100
412.800	9.494	0.100
412.900	8.682	0.100
413.000	5.089	0.100
413.100	-13.623	0.100
413.200	4.817	0.100
413.300	5.807	0.100
413.400	5.597	0.100
413.500	8.641	0.100
413.600	4.187	0.100
413.700	4.145	0.100
413.800	9.823	0.100
413.900	4.229	0.100
414.000	5.221	0.100
414.100	-0.717	0.100
414.200	3.525	0.100
414.300	0.380	0.100
414.400	4.916	0.100
414.500	2.321	0.100
414.600	14.387	0.100
414.700	0.810	0.100
414.800	13.162	0.100
414.900	2.956	0.100
415.000	10.073	0.100
415.100	4.054	0.100
415.200	5.133	0.100
415.300	3.348	0.100
415.400	2.373	0.100
415.500	4.436	0.100
415.600	4.195	0.100
415.700	6.071	0.100
415.800	-0.530	0.100
415.900	14.010	0.100
416.000	-0.243	0.100
416.100	1.147	0.100
416.200	7.023	0.100
416.300	-3.597	0.100
416.400	4.777	0.100
416.500	4.120	0.100
416.600	2.998	0.100
416.700	4.506	0.100
416.800	6.806	0.100
416.900	4.161	0.100
417.000	-3.308	0.100
417.100	6.932	0.100
417.200	14.527	0.100
417.300	5.865	0.100
417.400	1.136	0.100
417.500	-9.387	0.100
417.600	13.346	0.100
417.700	1.470	0.100
417.800	-2.199	0.100
417.900	-4.790	0.100
418.000	1.815	0.100
418.100	-9.541	0.100
418.200	1.641	0.100
418.300	2.686	0.100
418.400	1.850	0.100
418.500	0.430	0.100
418.600	4.140	0.100
418.700	2.184	0.100
418.800	9.590	0.100
418.900	3.573	0.100
419.000	-4.488	0.100
419.100	-1.358	0.100
419.200	8.879	0.100
419.300	10.912	0.100
419.400	-4.426	0.100
419.500	2.171	0.100
419.600	8.328	0.100
419.700	3.567	0.100
419.800	4.270	0.100
419.900	-3.672	0.100
420.000	1.012	0.100
420.100	-0.743	0.100
420.200	7.199	0.100
420.300	-10.861	0.100
420.400	-1.584	0.100
420.500	-0.291	0.100
420.600	8.284	0.100
420.700	3.587	0.100
420.800	2.901	0.100
420.900	-4.135	0.100
421.000	0.920	0.100
421.100	2.730	0.100
421.200	6.388	0.100
421.300	-9.248	0.100
421.400	-0.282	0.100
421.500	-0.762	0.100
421.600	3.789	0.100
421.700	-0.495	0.100
421.800	-3.118	0.100
421.900	3.060	0.100
422.000	15.293	0.100
422.100	-1.211	0.100
422.200	-5.101	0.100
422.300	-5.287	0.100
422.400	1.523	0.100
422.500	3.355	0.100
422.600	-1.520	0.100
422.700	-2.473	0.100
422.800	7.974	0.100
422.900	-0.257	0.100
423.000	-0.878	0.100
423.100	7.199	0.100
423.200	-1.724	0.100
423.300	-2.289	0.100
423.400	4.661	0.100
423.500	4.226	0.100
423.600	1.099	0.100
423.700	-2.293	0.100
423.800	-1.839	0.100
423.900	0.178	0.100
424.000	2.181	0.100
424.100	-5.506	0.100
424.200	-6.128	0.100
424.300	-0.936	0.100
424.400	3.697	0.100
424.500	2.004	0.100
424.600	4.436	0.100
424.700	-1.004	0.100
424.800	-6.470	0.100
424.900	0.676	0.100
425.000	-0.188	0.100
425.100	3.164	0.100
425.200	-2.479	0.100
425.300	0.975	0.100
425.400	8.420	0.100
425.500	0.206	0.100
425.600	-4.425	0.100
425.700	-6.337	0.100
425.800	8.413	0.100
425.900	-7.414	0.100
426.000	6.741	0.100
426.100	-0.060	0.100
426.200	-0.485	0.100
426.300	4.811	0.100
426.400	-3.120	0.100
426.500	-9.725	0.100
426.600	-3.492	0.100
426.700	2.096	0.100
426.800	-0.354	0.100
426.900	-2.800	0.100
427.000	-2.112	0.100
427.100	-4.373	0.100
427.200	2.566	0.100
427.300	-8.370	0.100
427.400	-2.848	0.100
427.500	7.949	0.100
427.600	4.474	0.100
427.700	-8.779	0.100
427.800	0.202	0.100
427.900	6.693	0.100
428.000	1.704	0.100
428.100	-3.635	0.100
428.200	1.606	0.100
428.300	-7.828	0.100
428.400	-0.273	0.100
428.500	2.231	0.100
428.600	-4.588	0.100
428.700	3.593	0.100
428.800	0.019	0.100
428.900	0.460	0.100
429.000	-1.441	0.100
429.100	1.487	0.100
429.200	-3.241	0.100
429.300	0.042	0.100
429.400	-9.471	0.100
429.500	-0.772	0.100
429.600	2.312	0.100
429.700	-2.004	0.100
429.800	-0.719	0.100
429.900	-7.710	0.100
430.000	-3.855	0.100
430.100	3.125	0.100
430.200	2.585	0.100
430.300	-10.858	0.100
430.400	-6.546	0.100
430.500	-6.378	0.100
430.600	-6.241	0.100
430.700	-1.295	0.100
430.800	-3.475	0.100
430.900	4.990	0.100
431.000	5.208	0.100
431.100	-3.136	0.100
431.200	-7.967	0.100
431.300	-1.601	0.100
431.400	-1.341	0.100
431.500	-1.816	0.100
431.600	3.148	0.100
431.700	-5.961	0.100
431.800	-1.013	0.100
431.900	4.355	0.100
432.000	-5.483	0.100
432.100	-9.560	0.100
432.200	-0.994	0.100
432.300	0.864	0.100
432.400	-8.469	0.100
432.500	6.712	0.100
432.600	-6.217	0.100
432.700	-5.025	0.100
432.800	-10.541	0.100
432.900	-11.581	0.100
433.000	8.054	0.100
433.100	4.562	0.100
433.200	2.828	0.100
433.300	-4.205	0.100
433.400	-5.204	0.100
433.500	-7.023	0.100
433.600	-4.532	0.100
433.700	-0.022	0.100
433.800	-6.112	0.100
433.900	-5.383	0.100
434.000	2.294	0.100
434.100	-7.116	0.100
434.200	-3.862	0.100
434.300	-2.134	0.100
434.400	-1.787	0.100
434.500	6.458	0.100
434.600	3.718	0.100
434.700	-13.980	0.100
434.800	-4.931	0.100
434.900	-11.588	0.100
435.000	-3.202	0.100
435.100	3.181	0.100
435.200	-3.865	0.100
435.300	6.932	0.100
435.400	-7.313	0.100
435.500	-4.621	0.100
435.600	-7.956	0.100
435.700	-3.210	0.100
435.800	-1.963	0.100
435.900	-3.492	0.100
436.000	0.982	0.100
436.100	-1.127	0.100
436.200	-18.068	0.100
436.300	-2.611	0.100
436.400	-2.263	0.100
436.500	-2.647	0.100
436.600	-1.399	0.100
436.700	-3.929	0.100
436.800	-1.387	0.100
436.900	-3.817	0.100
437.000	0.552	0.100
437.100	-3.627	0.100
437.200	-5.223	0.100
437.300	-5.255	0.100
437.400	-3.456	0.100
437.500	-2.687	0.100
437.600	-0.595	0.100
437.700	-5.771	0.100
437.800	-1.785	0.100
437.900	-4.921	0.100
438.000	-0.620	0.100
438.100	-4.761	0.100
438.200	-9.001	0.100
438.300	-5.086	0.100
438.400	-7.450	0.100
438.500	-4.096	0.100
438.600	0.658	0.100
438.700	-6.231	0.100
438.800	-2.454	0.100
438.900	-1.755	0.100
439.000	-2.197	0.100
439.100	0.305	0.100
439.200	-15.766	0.100
439.300	-1.118	0.100
439.400	-1.725	0.100
439.500	-3.596	0.100
439.600	-2.290	0.100
439.700	-5.459	0.100
439.800	-7.284	0.100
439.900	4.733	0.100
440.000	-15.876	0.100
440.100	-8.295	0.100
440.200	-7.491	0.100
440.300	-7.892	0.100
440.400	6.575	0.100
440.500	2.468	0.100
440.600	-7.863	0.100
440.700	-5.356	0.100
440.800	-2.234	0.100
440.900	-4.838	0.100
441.000	-3.661	0.100
441.100	-2.240	0.100
441.200	-2.376	0.100
441.300	-2.004	0.100
441.400	-11.655	0.100
441.500	-1.806	0.100
441.600	7.439	0.100
441.700	-10.537	0.100
441.800	-9.097	0.100
441.900	-0.190	0.100
442.000	-0.127	0.100
442.100	-7.271	0.100
442.200	-1.853	0.100
442.300	-6.899	0.100
442.400	-14.655	0.100
442.500	-3.988	0.100
442.600	-6.016	0.100
442.700	-8.970	0.100
442.800	-4.704	0.100
442.900	-1.785	0.100
443.000	2.496	0.100
443.100	-6.598	0.100
443.200	3.531	0.100
443.300	-6.049	0.100
443.400	-7.172	0.100
443.500	0.089	0.100
443.600	-3.890	0.100
443.700	-7.003	0.100
443.800	-3.503	0.100
443.900	-3.877	0.100
444.000	-10.898	0.100
444.100	-0.028	0.100
444.200	-9.019	0.100
444.300	-7.997	0.100
444.400	-2.443	0.100
444.500	-1.512	0.100
444.600	-4.772	0.100
444.700	-5.094	0.100
444.800	-1.775	0.100
444.900	-5.510	0.100
445.000	-13.154	0.100
445.100	-0.692	0.100
445.200	1.752	0.100
445.300	-4.965	0.100
445.400	-8.961	0.100
445.500	-11.078	0.100
445.600	-6.556	0.100
445.700	-7.245	0.100
445.800	-4.739	0.100
445.900	-8.568	0.100
446.000	-4.801	0.100
446.100	0.859	0.100
446.200	-5.488	0.100
446.300	-9.511	0.100
446.400	-1.752	0.100
446.500	-9.577	0.100
446.600	-3.406	0.100
446.700	6.525	0.100
446.800	-4.658	0.100
446.900	-11.378	0.100
447.000	0.792	0.100
447.100	-6.839	0.100
447.200	-5.225	0.100
447.300	-0.718	0.100
447.400	-3.568	0.100
447.500	-2.686	0.100
447.600	-18.649	0.100
447.700	-2.246	0.100
447.800	-2.494	0.100
447.900	-17.272	0.100
448.000	-8.013	0.100
448.100	1.041	0.100
448.200	2.409	0.100
448.300	-11.268	0.100
448.400	-10.411	0.100
448.500	3.198	0.100
448.600	-7.970	0.100
448.700	-4.717	0.100
448.800	-1.961	0.100
448.900	-2.574	0.100
449.000	-5.410	0.100
449.100	-1.012	0.100
449.200	-4.875	0.100
449.300	-2.008	0.100
449.400	-6.026	0.100
449.500	-12.873	0.100
449.600	-3.195	0.100
449.700	-4.227	0.100
449.800	-7.557	0.100
449.900	-6.622	0.100
450.000	-4.079	0.100
450.100	-8.020	0.100
450.200	-5.868	0.100
450.300	-1.109	0.100
450.400	1.966	0.100
450.500	-3.966	0.100
450.600	-2.358	0.100
450.700	-1.330	0.100
450.800	-10.415	0.100
450.900	-10.356	0.100
451.000	-0.701	0.100
451.100	-8.569	0.100
451.200	0.495	0.100
451.300	-13.113	0.100
451.400	-2.851	0.100
451.500	-6.869	0.100
451.600	-3.992	0.100
451.700	-6.350	0.100
451.800	2.894	0.100
451.900	-7.325	0.100
452.000	-15.052	0.100
452.100	-4.556	0.100
452.200	-6.373	0.100
452.300	-2.631	0.100
452.400	-8.581	0.100
452.500	-3.242	0.100
452.600	-2.458	0.100
452.700	-3.931	0.100
452.800	-0.982	0.100
452.900	-3.682	0.100
453.000	-8.939	0.100
453.100	-7.268	0.100
453.200	-10.328	0.100
453.300	2.714	0.100
453.400	-11.997	0.100
453.500	-2.473	0.100
453.600	-7.674	0.100
453.700	-4.818	0.100
453.800	-8.177	0.100
453.900	-4.533	0.100
454.000	-2.452	0.100
454.100	-5.250	0.100
454.200	-6.623	0.100
454.300	-8.374	0.100
454.400	-5.934	0.100
454.500	-13.235	0.100
454.600	2.177	0.100
454.700	-11.701	0.100
454.800	-2.103	0.100
454.900	-0.751	0.100
455.000	-2.001	0.100
455.100	-0.555	0.100
455.200	-4.116	0.100
455.300	-2.900	0.100
455.400	-9.690	0.100
455.500	-8.338	0.100
455.600	-6.759	0.100
455.700	-5.840	0.100
455.800	-8.488	0.100
455.900	-19.290	0.100
456.000	-7.317	0.100
456.100	3.319	0.100
456.200	-6.853	0.100
456.300	-7.525	0.100
456.400	-5.847	0.100
456.500	-7.633	0.100
456.600	-7.066	0.100
456.700	0.847	0.100
456.800	-3.768	0.100
456.900	-13.796	0.100
457.000	-6.765	0.100
457.100	-0.649	0.100
457.200	-3.080	0.100
457.300	-14.003	0.100
457.400	-8.150	0.100
457.500	-1.350	0.100
457.600	1.475	0.100
457.700	-9.779	0.100
457.800	-11.377	0.100
457.900	-9.572	0.100
458.000	-4.521	0.100
458.100	-2.233	0.100
458.200	-1.923	0.100
458.300	-14.773	0.100
458.400	-13.890	0.100
458.500	-4.425	0.100
458.600	0.687	0.100
458.700	-6.478	0.100
458.800	-19.819	0.100
458.900	-6.988	0.100
459.000	-6.217	0.100
459.100	-1.734	0.100
459.200	-15.056	0.100
459.300	-7.024	0.100
459.400	-8.803	0.100
459.500	-0.263	0.100
459.600	-0.209	0.100
459.700	-10.837	0.100
459.800	-8.781	0.100
459.900	-1.503	0.100
460.000	-4.121	0.100
460.100	-1.941	0.100
460.200	-4.555	0.100
460.300	-6.065	0.100
460.400	-7.063	0.100
460.500	-5.752	0.100
460.600	-10.881	0.100
460.700	-4.168	0.100
460.800	-0.616	0.100
460.900	-5.866	0.100
461.000	-9.832	0.100
461.100	-13.757	0.100
461.200	-8.326	0.100
461.300	-4.967	0.100
461.400	-10.652	0.100
461.500	-5.092	0.100
461.600	-10.086	0.100
461.700	-10.219	0.100
461.800	-6.390	0.100
461.900	-2.116	0.100
462.000	-8.941	0.100
462.100	-7.536	0.100
462.200	-14.923	0.100
462.300	-7.050	0.100
462.400	-6.961	0.100
462.500	-2.042	0.100
462.600	-2.730	0.100
462.700	-7.477	0.100
462.800	-1.111	0.100
462.900	-1.435	0.100
463.000	-5.428	0.100
463.100	-6.390	0.100
463.200	-4.482	0.100
463.300	-5.460	0.100
463.400	-4.831	0.100
463.500	-10.828	0.100
463.600	-9.787	0.100
463.700	-5.796	0.100
463.800	-6.116	0.100
463.900	-11.144	0.100
464.000	-6.512	0.100
464.100	-11.652	0.100
464.200	-7.574	0.100
464.300	-10.301	0.100
464.400	-8.893	0.100
464.500	-16.660	0.100
464.600	-4.033	0.100
464.700	-2.614	0.100
464.800	3.662	0.100
464.900	-12.743	0.100
465.000	-12.132	0.100
465.100	0.873	0.100
465.200	2.272	0.100
465.300	-15.119	0.100
465.400	-6.124	0.100
465.500	-1.992	0.100
465.600	-3.427	0.100
465.700	-7.355	0.100
465.800	-8.491	0.100
465.900	-11.026	0.100
466.000	-9.022	0.100
466.100	-9.016	0.100
466.200	-11.799	0.100
466.300	-4.283	0.100
466.400	-7.521	0.100
466.500	-11.362	0.100
466.600	-2.812	0.100
466.700	-11.735	0.100
466.800	-11.499	0.100
466.900	-4.017	0.100
467.000	-5.304	0.100
467.100	-8.062	0.100
467.200	3.360	0.100
467.300	-15.807	0.100
467.400	-0.811	0.100
467.500	-6.900	0.100
467.600	-20.117	0.100
467.700	-7.123	0.100
467.800	-11.165	0.100
467.900	-2.691	0.100
468.000	-5.237	0.100
468.100	-3.235	0.100
468.200	-16.132	0.100
468.300	-8.692	0.100
468.400	-4.735	0.100
468.500	-9.662	0.100
468.600	-1.134	0.100
468.700	-2.046	0.100
468.800	-8.636	0.100
468.900	-5.243	0.100
469.000	-4.087	0.100
469.100	-6.993	0.100
469.200	-5.942	0.100
469.300	3.446	0.100
469.400	-8.468	0.100
469.500	-13.099	0.100
469.600	-3.443	0.100
469.700	-10.117	0.100
469.800	-10.793	0.100
469.900	-6.564	0.100
470.000	-1.880	0.100
470.100	-5.593	0.100
470.200	5.168	0.100
470.300	-10.862	0.100
470.400	-12.853	0.100
470.500	-17.918	0.100
470.600	-6.562	0.100
470.700	-10.549	0.100
470.800	-10.946	0.100
470.900	-5.909	0.100
471.000	-1.503	0.100
471.100	-2.975	0.100
471.200	-10.161	0.100
471.300	-15.137	0.100
471.400	-2.005	0.100
471.500	-1.213	0.100
471.600	-6.995	0.100
471.700	-7.681	0.100
471.800	-11.215	0.100
471.900	-16.939	0.100
472.000	-10.433	0.100
472.100	-2.786	0.100
472.200	-13.410	0.100
472.300	-13.728	0.100
472.400	-3.439	0.100
472.500	-4.032	0.100
472.600	-3.963	0.100
472.700	-11.915	0.100
472.800	-2.116	0.100
472.900	-11.025	0.100
473.000	-7.467	0.100
473.100	-12.255	0.100
473.200	-11.383	0.100
473.300	-7.138	0.100
473.400	-5.997	0.100
473.500	-6.704	0.100
473.600	-2.777	0.100
473.700	-14.486	0.100
473.800	4.065	0.100
473.900	-4.149	0.100
474.000	-14.260	0.100
474.100	-9.871	0.100
474.200	-4.162	0.100
474.300	-6.158	0.100
474.400	3.748	0.100
474.500	-14.386	0.100
474.600	-6.443	0.100
474.700	-7.223	0.100
474.800	-3.291	0.100
474.900	-5.570	0.100
475.000	-16.638	0.100
475.100	-10.155	0.100
475.200	-4.361	0.100
475.300	1.001	0.100
475.400	-1.382	0.100
475.500	-13.896	0.100
475.600	-9.815	0.100
475.700	-2.701	0.100
475.800	-9.925	0.100
475.900	-6.912	0.100
476.000	-8.582	0.100
476.100	-3.449	0.100
476.200	-6.800	0.100
476.300	-4.452	0.100
476.400	-14.920	0.100
476.500	-16.079	0.100
476.600	-2.702	0.100
476.700	-9.723	0.100
476.800	-4.697	0.100
476.900	-7.026	0.100
477.000	-8.926	0.100
477.100	-5.812	0.100
477.200	-9.329	0.100
477.300	-9.147	0.100
477.400	-8.395	0.100
477.500	-3.267	0.100
477.600	-0.306	0.100
477.700	-2.687	0.100
477.800	-11.732	0.100
477.900	-14.568	0.100
478.000	-5.328	0.100
478.100	-6.718	0.100
478.200	-5.805	0.100
478.300	-14.277	0.100
478.400	-6.518	0.100
478.500	-8.622	0.100
478.600	-2.014	0.100
478.700	-7.741	0.100
478.800	-13.624	0.100
478.900	-13.649	0.100
479.000	1.720	0.100
479.100	-7.500	0.100
479.200	-9.181	0.100
479.300	-2.005	0.100
479.400	-4.300	0.100
479.500	-9.287	0.100
479.600	-7.417	0.100
479.700	-7.463	0.100
479.800	-5.761	0.100
479.900	-6.253	0.100
480.000	-6.862	0.100
480.100	-8.348	0.100
480.200	-5.886	0.100
480.300	-5.753	0.100
480.400	-6.797	0.100
480.500	-7.764	0.100
480.600	-6.911	0.100
480.700	-6.263	0.100
480.800	-7.557	0.100
480.900	-8.911	0.100
481.000	-3.289	0.100
481.100	-8.257	0.100
481.200	-2.429	0.100
481.300	4.167	0.100
481.400	-7.585	0.100
481.500	-4.060	0.100
481.600	1.379	0.100
481.700	-1.413	0.100
481.800	-9.468	0.100
481.900	1.331	0.100
482.000	-1.247	0.100
482.100	-0.902	0.100
482.200	-3.523	0.100
482.300	0.990	0.100
482.400	-6.279	0.100
482.500	-7.713	0.100
482.600	-0.005	0.100
482.700	12.010	0.100
482.800	-0.710	0.100
482.900	-3.382	0.100
483.000	-0.838	0.100
483.100	-6.428	0.100
483.200	9.835	0.100
483.300	5.133	0.100
483.400	1.097	0.100
483.500	2.955	0.100
483.600	-3.781	0.100
483.700	2.461	0.100
483.800	-0.349	0.100
483.900	-7.304	0.100
484.000	-2.621	0.100
484.100	5.695	0.100
484.200	0.551	0.100
484.300	3.460	0.100
484.400	-6.349	0.100
484.500	-1.963	0.100
484.600	7.404	0.100
484.700	0.438	0.100
484.800	-11.104	0.100
484.900	-2.345	0.100
485.000	8.970	0.100
485.100	2.502	0.100
485.200	8.137	0.100
485.300	0.179	0.100
485.400	-7.139	0.100
485.500	-2.820	0.100
485.600	-9.459	0.100
485.700	2.335	0.100
485.800	0.188	0.100
485.900	2.187	0.100
486.000	5.308	0.100
486.100	5.890	0.100
486.200	7.230	0.100
486.300	0.187	0.100
486.400	5.304	0.100
486.500	-2.371	0.100
486.600	-1.790	0.100
486.700	0.293	0.100
486.800	-4.461	0.100
486.900	-0.292	0.100
487.000	1.014	0.100
487.100	-0.029	0.100
487.200	8.317	0.100
487.300	-0.737	0.100
487.400	3.317	0.100
487.500	1.018	0.100
487.600	1.415	0.100
487.700	3.302	0.100
487.800	-4.567	0.100
487.900	-0.134	0.100
488.000	2.232	0.100
488.100	1.704	0.100
488.200	6.623	0.100
488.300	10.535	0.100
488.400	-6.153	0.100
488.500	-2.832	0.100
488.600	-6.370	0.100
488.700	7.718	0.100
488.800	3.214	0.100
488.900	5.200	0.100
489.000	3.396	0.100
489.100	5.976	0.100
489.200	1.117	0.100
489.300	-7.704	0.100
489.400	5.821	0.100
489.500	-0.765	0.100
489.600	5.897	0.100
489.700	0.209	0.100
489.800	5.861	0.100
489.900	-0.436	0.100
490.000	0.225	0.100
490.100	1.656	0.100
490.200	0.275	0.100
490.300	8.055	0.100
490.400	8.720	0.100
490.500	6.000	0.100
490.600	-5.182	0.100
490.700	0.537	0.100
490.800	2.418	0.100
490.900	8.314	0.100
491.000	9.027	0.100
491.100	4.329	0.100
491.200	6.750	0.100
491.300	-9.808	0.100
491.400	4.840	0.100
491.500	9.145	0.100
491.600	3.658	0.100
491.700	8.960	0.100
491.800	9.001	0.100
491.900	7.554	0.100
492.000	3.233	0.100
492.100	4.310	0.100
492.200	0.268	0.100
492.300	4.891	0.100
492.400	-0.833	0.100
492.500	3.013	0.100
492.600	10.896	0.100
492.700	7.362	0.100
492.800	7.515	0.100
492.900	-0.808	0.100
493.000	1.969	0.100
493.100	6.675	0.100
493.200	0.459	0.100
493.300	3.892	0.100
493.400	-0.492	0.100
493.500	0.873	0.100
493.600	8.831	0.100
493.700	7.541	0.100
493.800	5.169	0.100
493.900	1.127	0.100
494.000	4.122	0.100
494.100	7.562	0.100
494.200	0.992	0.100
494.300	0.403	0.100
494.400	-2.189	0.100
494.500	6.585	0.100
494.600	-2.066	0.100
494.700	8.475	0.100
494.800	10.446	0.100
494.900	4.780	0.100
495.000	5.206	0.100
495.100	6.104	0.100
495.200	9.711	0.100
495.300	8.071	0.100
495.400	6.291	0.100
495.500	4.204	0.100
495.600	-0.118	0.100
495.700	3.450	0.100
495.800	3.579	0.100
495.900	10.984	0.100
496.000	4.588	0.100
496.100	4.747	0.100
496.200	10.283	0.100
496.300	3.032	0.100
496.400	4.168	0.100
496.500	10.606	0.100
496.600	10.549	0.100
496.700	-1.362	0.100
496.800	9.719	0.100
496.900	10.508	0.100
497.000	2.058	0.100
497.100	6.990	0.100
497.200	3.561	0.100
497.300	2.726	0.100
497.400	11.179	0.100
497.500	8.554	0.100
497.600	2.398	0.100
497.700	11.951	0.100
497.800	7.122	0.100
497.900	4.978	0.100
498.000	10.535	0.100
498.100	1.883	0.100
498.200	9.691	0.100
498.300	0.512	0.100
498.400	9.828	0.100
498.500	10.203	0.100
498.600	2.134	0.100
498.700	11.979	0.100
498.800	8.652	0.100
498.900	-3.180	0.100
499.000	0.284	0.100
499.100	8.786	0.100
499.200	-1.633	0.100
499.300	3.208	0.100
499.400	20.731	0.100
499.500	9.715	0.100
499.600	9.339	0.100
499.700	15.123	0.100
499.800	7.020	0.100
499.900	2.758	0.100
500.000	4.686	0.100
500.100	15.922	0.100
500.200	14.573	0.100
500.300	-0.214	0.100
500.400	8.703	0.100
500.500	8.192	0.100
500.600	10.117	0.100
500.700	2.847	0.100
500.800	18.583	0.100
500.900	13.508	0.100
501.000	3.114	0.100
501.100	10.594	0.100
501.200	8.324	0.100
501.300	1.746	0.100
501.400	2.063	0.100
501.500	20.625	0.100
501.600	5.022	0.100
501.700	16.467	0.100
501.800	8.769	0.100
501.900	9.071	0.100
502.000	10.866	0.100
502.100	0.109	0.100
502.200	11.424	0.100
502.300	7.245	0.100
502.400	7.802	0.100
502.500	2.643	0.100
502.600	15.062	0.100
502.700	6.246	0.100
502.800	6.308	0.100
502.900	11.501	0.100
503.000	10.615	0.100
503.100	14.870	0.100
503.200	4.684	0.100
503.300	11.360	0.100
503.400	8.502	0.100
503.500	7.344	0.100
503.600	13.944	0.100
503.700	9.489	0.100
503.800	5.400	0.100
503.900	4.623	0.100
504.000	9.339	0.100
504.100	11.608	0.100
504.200	10.479	0.100
504.300	12.092	0.100
504.400	4.752	0.100
504.500	4.503	0.100
504.600	13.346	0.100
504.700	13.654	0.100
504.800	15.551	0.100
504.900	7.270	0.100
505.000	8.826	0.100
505.100	17.523	0.100
505.200	9.932	0.100
505.300	16.064	0.100
505.400	10.990	0.100
505.500	5.451	0.100
505.600	19.212	0.100
505.700	16.196	0.100
505.800	8.255	0.100
505.900	4.963	0.100
506.000	1.973	0.100
506.100	11.675	0.100
506.200	13.824	0.100
506.300	10.040	0.100
506.400	6.368	0.100
506.500	13.465	0.100
506.600	8.352	0.100
506.700	1.354	0.100
506.800	16.650	0.100
506.900	7.813	0.100
507.000	11.432	0.100
507.100	8.287	0.100
507.200	14.490	0.100
507.300	4.087	0.100
507.400	16.408	0.100
507.500	5.014	0.100
507.600	18.460	0.100
507.700	11.274	0.100
507.800	13.419	0.100
507.900	9.754	0.100
508.000	10.587	0.100
508.100	10.196	0.100
508.200	6.395	0.100
508.300	9.343	0.100
508.400	16.308	0.100
508.500	15.712	0.100
508.600	15.203	0.100
508.700	18.206	0.100
508.800	14.877	0.100
508.900	1.430	0.100
509.000	8.613	0.100
509.100	17.552	0.100
509.200	10.173	0.100
509.300	8.359	0.100
509.400	20.627	0.100
509.500	9.115	0.100
509.600	11.854	0.100
509.700	14.450	0.100
509.800	11.798	0.100
509.900	7.393	0.100
510.000	11.151	0.100
510.100	14.128	0.100
510.200	10.460	0.100
510.300	6.516	0.100
510.400	10.730	0.100
510.500	10.992	0.100
510.600	19.844	0.100
510.700	15.034	0.100
510.800	14.304	0.100
510.900	14.413	0.100
511.000	12.997	0.100
511.100	15.954	0.100
511.200	13.483	0.100
511.300	8.546	0.100
511.400	8.625	0.100
511.500	8.212	0.100
511.600	8.182	0.100
511.700	6.366	0.100
511.800	18.586	0.100
511.900	12.534	0.100
512.000	15.887	0.100
512.100	16.210	0.100
512.200	10.077	0.100
512.300	12.888	0.100
512.400	7.253	0.100
512.500	6.417	0.100
512.600	19.473	0.100
512.700	11.223	0.100
512.800	14.878	0.100
512.900	18.988	0.100
513.000	21.487	0.100
513.100	11.472	0.100
513.200	21.042	0.100
513.300	15.082	0.100
513.400	8.417	0.100
513.500	24.059	0.100
513.600	10.046	0.100
513.700	2.324	0.100
513.800	11.621	0.100
513.900	5.148	0.100
514.000	8.887	0.100
514.100	21.433	0.100
514.200	8.028	0.100
514.300	11.626	0.100
514.400	13.178	0.100
514.500	12.936	0.100
514.600	12.727	0.100
514.700	15.283	0.100
514.800	14.882	0.100
514.900	17.308	0.100
515.000	11.731	0.100
515.100	11.309	0.100
515.200	21.290	0.100
515.300	5.643	0.100
515.400	9.980	0.100
515.500	19.325	0.100
515.600	10.714	0.100
515.700	-0.028	0.100
515.800	11.763	0.100
515.900	15.684	0.100
516.000	21.943	0.100
516.100	18.484	0.100
516.200	6.960	0.100
516.300	18.725	0.100
516.400	20.976	0.100
516.500	12.043	0.100
516.600	14.769	0.100
516.700	6.557	0.100
516.800	20.712	0.100
516.900	21.719	0.100
517.000	11.303	0.100
517.100	13.768	0.100
517.200	22.857	0.100
517.300	20.370	0.100
517.400	14.009	0.100
517.500	11.817	0.100
517.600	12.313	0.100
517.700	9.879	0.100
517.800	10.097	0.100
517.900	14.910	0.100
518.000	10.889	0.100
518.100	18.364	0.100
518.200	27.653	0.100
518.300	14.777	0.100
518.400	17.329	0.100
518.500	12.179	0.100
518.600	14.850	0.100
518.700	14.698	0.100
518.800	23.108	0.100
518.900	12.532	0.100
519.000	18.088	0.100
519.100	18.906	0.100
519.200	16.670	0.100
519.300	14.434	0.100
519.400	14.890	0.100
519.500	12.979	0.100
519.600	14.351	0.100
519.700	16.907	0.100
519.800	13.672	0.100
519.900	14.250	0.100
520.000	15.416	0.100
520.100	12.833	0.100
520.200	20.663	0.100
520.300	23.684	0.100
520.400	15.348	0.100
520.500	21.805	0.100
520.600	26.716	0.100
520.700	15.827	0.100
520.800	19.676	0.100
520.900	13.188	0.100
521.000	16.320	0.100
521.100	13.549	0.100
521.200	14.962	0.100
521.300	11.398	0.100
521.400	20.715	0.100
521.500	9.926	0.100
521.600	14.670	0.100
521.700	15.536	0.100
521.800	16.772	0.100
521.900	19.107	0.100
522.000	22.688	0.100
522.100	23.936	0.100
522.200	7.986	0.100
522.300	18.289	0.100
522.400	23.658	0.100
522.500	18.601	0.100
522.600	13.154	0.100
522.700	16.410	0.100
522.800	17.977	0.100
522.900	11.790	0.100
523.000	9.890	0.100
523.100	24.166	0.100
523.200	13.827	0.100
523.300	24.642	0.100
523.400	21.177	0.100
523.500	5.601	0.100
523.600	15.570	0.100
523.700	15.840	0.100
523.800	19.791	0.100
523.900	16.471	0.100
524.000	16.829	0.100
524.100	15.765	0.100
524.200	8.347	0.100
524.300	18.442	0.100
524.400	16.503	0.100
524.500	21.137	0.100
524.600	17.734	0.100
524.700	13.873	0.100
524.800	11.685	0.100
524.900	21.363	0.100
525.000	16.828	0.100
525.100	21.276	0.100
525.200	14.088	0.100
525.300	18.544	0.100
525.400	16.018	0.100
525.500	17.653	0.100
525.600	20.268	0.100
525.700	15.125	0.100
525.800	20.275	0.100
525.900	18.709	0.100
526.000	17.827	0.100
526.100	14.405	0.100
526.200	15.119	0.100
526.300	17.166	0.100
526.400	18.737	0.100
526.500	20.424	0.100
526.600	19.557	0.100
526.700	23.202	0.100
526.800	17.489	0.100
526.900	19.525	0.100
527.000	9.751	0.100
527.100	18.432	0.100
527.200	20.654	0.100
527.300	24.682	0.100
527.400	20.418	0.100
527.500	16.272	0.100
527.600	13.140	0.100
527.700	20.416	0.100
527.800	16.637	0.100
527.900	23.316	0.100
528.000	15.879	0.100
528.100	15.291	0.100
528.200	8.332	0.100
528.300	16.847	0.100
528.400	18.218	0.100
528.500	21.207	0.100
528.600	21.353	0.100
528.700	19.504	0.100
528.800	27.118	0.100
528.900	6.470	0.100
529.000	14.078	0.100
529.100	15.866	0.100
529.200	19.574	0.100
529.300	16.855	0.100
529.400	6.605	0.100
529.500	16.790	0.100
529.600	14.105	0.100
529.700	21.611	0.100
529.800	19.179	0.100
529.900	18.903	0.100
530.000	22.573	0.100
530.100	20.746	0.100
530.200	30.752	0.100
530.300	13.014	0.100
530.400	22.003	0.100
530.500	19.471	0.100
530.600	16.420	0.100
530.700	17.132	0.100
530.800	17.197	0.100
530.900	21.490	0.100
531.000	26.293	0.100
531.100	6.093	0.100
531.200	11.515	0.100
531.300	18.783	0.100
531.400	19.286	0.100
531.500	19.842	0.100
531.600	13.929	0.100
531.700	22.622	0.100
531.800	9.294	0.100
531.900	22.295	0.100
532.000	17.762	0.100
532.100	21.106	0.100
532.200	14.704	0.100
532.300	16.941	0.100
532.400	15.287	0.100
532.500	14.238	0.100
532.600	19.455	0.100
532.700	25.453	0.100
532.800	28.245	0.100
532.900	13.732	0.100
533.000	23.886	0.100
533.100	24.014	0.100
533.200	18.755	0.100
533.300	13.826	0.100
533.400	22.627	0.100
533.500	24.153	0.100
533.600	25.630	0.100
533.700	11.006	0.100
533.800	22.674	0.100
533.900	11.123	0.100
534.000	16.007	0.099
534.100	31.936	0.100
534.200	10.718	0.100
534.300	22.196	0.099
534.400	28.206	0.100
534.500	8.682	0.100
534.600	14.565	0.100
534.700	37.331	0.100
534.800	22.538	0.100
534.900	14.742	0.100
535.000	11.875	0.100
535.100	16.424	0.100
535.200	17.587	0.100
535.300	17.625	0.100
535.400	20.422	0.100
535.500	18.444	0.100
535.600	10.724	0.100
535.700	23.818	0.100
535.800	19.290	0.100
535.900	17.944	0.100
536.000	20.671	0.100
536.100	19.014	0.100
536.200	16.163	0.100
536.300	23.636	0.100
536.400	25.614	0.100
536.500	8.061	0.099
536.600	23.689	0.100
536.700	23.116	0.100
536.800	17.298	0.100
536.900	12.880	0.100
537.000	17.490	0.100
537.100	25.499	0.100
537.200	23.198	0.099
537.300	15.747	0.100
537.400	14.196	0.099
537.500	15.909	0.099
537.600	22.977	0.100
537.700	18.892	0.100
537.800	22.765	0.100
537.900	16.230	0.099
538.000	15.396	0.100
538.100	26.958	0.099
538.200	16.806	0.099
538.300	18.789	0.100
538.400	12.372	0.100
538.500	16.928	0.099
538.600	17.009	0.099
538.700	26.452	0.100
538.800	27.800	0.100
538.900	20.848	0.100
539.000	17.804	0.100
539.100	20.656	0.099
539.200	20.719	0.100
539.300	15.421	0.099
539.400	17.181	0.100
539.500	19.888	0.099
539.600	16.256	0.099
539.700	18.452	0.099
539.800	22.872	0.100
539.900	18.075	0.099
540.000	22.047	0.099
540.100	23.088	0.099
540.200	14.135	0.100
540.300	19.361	0.099
540.400	15.555	0.100
540.500	20.081	0.099
540.600	15.638	0.099
540.700	16.653	0.099
540.800	18.252	0.099
540.900	15.773	0.099
541.000	12.066	0.099
541.100	14.370	0.099
541.200	14.491	0.099
541.300	11.456	0.099
541.400	9.064	0.099
541.500	11.453	0.099
541.600	11.133	0.099
541.700	14.058	0.099
541.800	14.327	0.099
541.900	12.945	0.099
542.000	19.098	0.099
542.100	12.972	0.099
542.200	9.214	0.099
542.300	15.222	0.099
542.400	14.041	0.099
542.500	6.563	0.099
542.600	22.754	0.099
542.700	13.894	0.099
542.800	8.827	0.099
542.900	11.363	0.099
543.000	6.220	0.099
543.100	1.615	0.099
543.200	17.097	0.099
543.300	10.840	0.099
543.400	4.262	0.099
543.500	11.765	0.099
543.600	8.708	0.099
543.700	15.049	0.099
543.800	18.873	0.099
543.900	11.569	0.099
544.000	11.434	0.099
544.100	12.708	0.099
544.200	8.198	0.099
544.300	8.046	0.099
544.400	8.942	0.099
544.500	11.335	0.099
544.600	14.289	0.099
544.700	10.049	0.099
544.800	13.689	0.099
544.900	6.274	0.099
545.000	3.075	0.099
545.100	9.957	0.099
545.200	17.927	0.099
545.300	10.069	0.099
545.400	16.329	0.099
545.500	12.488	0.099
545.600	4.288	0.099
545.700	12.471	0.099
545.800	5.295	0.099
545.900	10.970	0.099
546.000	3.365	0.099
546.100	10.111	0.099
546.200	15.966	0.099
546.300	11.375	0.099
546.400	7.314	0.099
546.500	10.635	0.099
546.600	10.327	0.099
546.700	7.344	0.099
546.800	1.140	0.099
546.900	12.980	0.099
547.000	15.015	0.099
547.100	12.132	0.099
547.200	8.776	0.099
547.300	10.183	0.099
547.400	15.102	0.099
547.500	5.787	0.099
547.600	14.225	0.099
547.700	6.037	0.099
547.800	7.761	0.099
547.900	12.734	0.099
548.000	4.834	0.099
548.100	8.771	0.099
548.200	3.572	0.099
548.300	13.829	0.099
548.400	5.422	0.099
548.500	14.150	0.099
548.600	5.625	0.099
548.700	11.672	0.099
548.800	13.194	0.099
548.900	10.683	0.099
549.000	12.078	0.099
549.100	6.146	0.099
549.200	11.796	0.099
549.300	2.721	0.099
549.400	11.576	0.099
549.500	9.947	0.099
549.600	1.858	0.099
549.700	13.434	0.099
549.800	4.268	0.099
549.900	4.408	0.099
550.000	5.010	0.099
550.100	5.397	0.099
550.200	10.842	0.099
550.300	6.049	0.099
550.400	12.771	0.099
550.500	5.398	0.099
550.600	15.578	0.099
550.700	13.757	0.099
550.800	10.794	0.099
550.900	3.777	0.099
551.000	9.878	0.099
551.100	8.688	0.099
551.200	5.770	0.099
551.300	12.135	0.099
551.400	5.043	0.099
551.500	7.682	0.099
551.600	9.356	0.099
551.700	9.092	0.099
551.800	-1.559	0.099
551.900	7.659	0.099
552.000	13.385	0.099
552.100	3.107	0.099
552.200	2.704	0.099
552.300	12.125	0.099
552.400	11.247	0.099
552.500	6.257	0.099
552.600	7.884	0.099
552.700	3.515	0.099
552.800	-2.048	0.099
552.900	-0.757	0.099
553.000	6.843	0.099
553.100	8.669	0.099
553.200	16.965	0.099
553.300	2.826	0.099
553.400	5.499	0.099
553.500	10.914	0.099
553.600	9.011	0.099
553.700	16.002	0.099
553.800	6.811	0.099
553.900	9.256	0.099
554.000	-1.425	0.099
554.100	8.872	0.099
554.200	5.600	0.099
554.300	9.268	0.099
554.400	-2.287	0.099
554.500	7.937	0.099
554.600	5.206	0.099
554.700	11.897	0.099
554.800	8.490	0.099
554.900	-0.341	0.099
555.000	10.260	0.099
555.100	8.050	0.099
555.200	-0.656	0.099
555.300	13.497	0.099
555.400	8.440	0.099
555.500	5.398	0.099
555.600	3.887	0.099
555.700	2.456	0.099
555.800	7.351	0.099
555.900	9.376	0.099
556.000	-0.133	0.099
556.100	1.717	0.099
556.200	7.572	0.099
556.300	11.257	0.099
556.400	4.341	0.099
556.500	1.914	0.099
556.600	10.178	0.099
556.700	3.269	0.099
556.800	-1.002	0.099
556.900	6.434	0.099
557.000	5.121	0.099
557.100	3.993	0.099
557.200	5.130	0.099
557.300	2.406	0.099
557.400	3.379	0.099
557.500	5.471	0.099
557.600	-4.002	0.099
557.700	11.222	0.099
557.800	16.077	0.099
557.900	-6.306	0.099
558.000	6.846	0.099
558.100	1.492	0.099
558.200	10.999	0.099
558.300	4.140	0.099
558.400	6.331	0.099
558.500	11.333	0.099
558.600	4.895	0.099
558.700	8.673	0.099
558.800	-0.327	0.099
558.900	-0.187	0.099
559.000	6.593	0.099
559.100	5.473	0.099
559.200	-2.244	0.099
559.300	2.596	0.099
559.400	-0.912	0.099
559.500	5.313	0.099
559.600	11.826	0.099
559.700	7.523	0.099
559.800	10.948	0.099
559.900	-3.185	0.099
560.000	0.372	0.099
560.100	1.398	0.099
560.200	13.109	0.099
560.300	6.862	0.099
560.400	4.221	0.099
560.500	0.112	0.099
560.600	-1.944	0.099
560.700	2.884	0.099
560.800	-5.962	0.099
560.900	0.146	0.099
561.000	7.399	0.099
561.100	14.625	0.099
561.200	11.107	0.099
561.300	4.434	0.099
561.400	7.023	0.099
561.500	6.169	0.099
561.600	-1.023	0.099
561.700	0.535	0.099
561.800	-7.308	0.099
561.900	7.907	0.099
562.000	5.781	0.099
562.100	6.818	0.099
562.200	-5.292	0.099
562.300	10.149	0.099
562.400	2.624	0.099
562.500	5.327	0.099
562.600	0.448	0.099
562.700	6.118	0.099
562.800	-1.102	0.099
562.900	1.379	0.099
563.000	4.054	0.099
563.100	8.222	0.099
563.200	1.546	0.099
563.300	12.581	0.099
563.400	-5.716	0.099
563.500	8.714	0.099
563.600	5.388	0.099
563.700	4.236	0.099
563.800	-3.457	0.099
563.900	-4.176	0.099
564.000	13.620	0.099
564.100	-3.698	0.099
564.200	-4.555	0.099
564.300	-2.676	0.099
564.400	16.086	0.099
564.500	8.435	0.099
564.600	-1.881	0.099
564.700	-4.608	0.099
564.800	-5.092	0.099
564.900	-3.140	0.099
565.000	-1.360	0.099
565.100	8.994	0.099
565.200	7.028	0.099
565.300	2.286	0.099
565.400	0.689	0.099
565.500	-5.468	0.099
565.600	5.744	0.099
565.700	-1.172	0.099
565.800	-5.567	0.099
565.900	7.250	0.099
566.000	3.642	0.099
566.100	-1.178	0.099
566.200	2.293	0.099
566.300	-1.435	0.099
566.400	5.492	0.099
566.500	1.316	0.099
566.600	1.162	0.099
566.700	13.327	0.099
566.800	1.733	0.099
566.900	0.720	0.099
567.000	-0.348	0.099
567.100	-8.757	0.099
567.200	6.883	0.099
567.300	4.741	0.099
567.400	10.090	0.099
567.500	-0.362	0.099
567.600	-0.676	0.099
567.700	7.396	0.099
567.800	1.799	0.099
567.900	-8.491	0.099
568.000	-11.130	0.099
568.100	1.701	0.099
568.200	8.646	0.099
568.300	1.855	0.099
568.400	-0.721	0.099
568.500	3.732	0.099
568.600	1.572	0.099
568.700	-5.252	0.099
568.800	-2.537	0.099
568.900	-1.827	0.099
569.000	1.251	0.099
569.100	-0.373	0.099
569.200	-0.432	0.099
569.300	-3.591	0.099
569.400	1.597	0.099
569.500	-1.911	0.099
569.600	-3.024	0.099
569.700	6.628	0.099
569.800	-1.075	0.099
569.900	-1.346	0.099
570.000	-0.117	0.099
570.100	-1.375	0.099
570.200	0.503	0.099
570.300	-1.213	0.099
570.400	6.793	0.099
570.500	-3.186	0.099
570.600	7.962	0.099
570.700	-5.272	0.099
570.800	4.160	0.099
570.900	-4.215	0.099
571.000	-4.903	0.099
571.100	6.418	0.099
571.200	-6.068	0.099
571.300	7.518	0.099
571.400	-0.021	0.099
571.500	0.299	0.099
571.600	-3.708	0.099
571.700	-0.737	0.099
571.800	-3.044	0.099
571.900	0.627	0.099
572.000	-1.324	0.099
572.100	5.721	0.099
572.200	-1.911	0.099
572.300	-6.085	0.099
572.400	-1.362	0.099
572.500	-3.974	0.099
572.600	3.627	0.099
572.700	3.378	0.099
572.800	-2.388	0.099
572.900	-2.826	0.099
573.000	-5.184	0.099
573.100	-17.399	0.099
573.200	-10.643	0.099
573.300	3.674	0.099
573.400	3.163	0.099
573.500	-1.820	0.099
573.600	-3.981	0.099
573.700	-2.604	0.099
573.800	-1.024	0.099
573.900	-4.325	0.099
574.000	2.554	0.099
574.100	-6.576	0.099
574.200	7.163	0.099
574.300	0.099	0.099
574.400	6.673	0.099
574.500	-1.014	0.099
574.600	-2.306	0.099
574.700	3.073	0.099
574.800	-1.722	0.099
574.900	-1.350	0.099
575.000	1.259	0.099
575.100	-1.393	0.099
575.200	-7.871	0.099
575.300	-2.682	0.099
575.400	-5.728	0.099
575.500	-2.148	0.099
575.600	-2.693	0.099
575.700	6.612	0.099
575.800	1.125	0.099
575.900	-2.334	0.099
576.000	-0.112	0.099
576.100	-2.980	0.099
576.200	-1.767	0.099
576.300	0.634	0.099
576.400	1.183	0.099
576.500	-4.264	0.099
576.600	-2.210	0.099
576.700	5.053	0.099
576.800	-6.687	0.099
576.900	-8.829	0.099
577.000	0.200	0.099
577.100	-4.973	0.099
577.200	-3.645	0.099
577.300	-6.980	0.099
577.400	3.644	0.099
577.500	-0.099	0.099
577.600	0.356	0.099
577.700	-10.182	0.099
577.800	-0.575	0.099
577.900	1.879	0.099
578.000	-3.749	0.099
578.100	-3.533	0.099
578.200	0.426	0.099
578.300	-8.641	0.099
578.400	-2.960	0.099
578.500	-2.079	0.099
578.600	3.925	0.099
578.700	-4.526	0.099
578.800	-7.407	0.099
578.900	-2.963	0.099
579.000	-18.487	0.099
579.100	6.288	0.099
579.200	-0.401	0.099
579.300	0.289	0.099
579.400	4.828	0.099
579.500	-6.768	0.099
579.600	-6.154	0.099
579.700	-5.742	0.099
579.800	-4.400	0.099
579.900	-4.833	0.099
580.000	3.459	0.099
580.100	-6.274	0.099
580.200	-6.920	0.099
580.300	-1.267	0.099
580.400	0.379	0.099
580.500	-7.699	0.099
580.600	-7.999	0.099
580.700	-5.776	0.099
580.800	-4.895	0.099
580.900	-6.461	0.099
581.000	3.161	0.099
581.100	3.638	0.099
581.200	-9.404	0.099
581.300	4.007	0.099
581.400	0.908	0.099
581.500	-7.182	0.099
581.600	7.347	0.099
581.700	-1.090	0.099
581.800	-8.808	0.099
581.900	-0.310	0.099
582.000	-6.776	0.099
582.100	-3.397	0.099
582.200	0.764	0.099
582.300	-10.011	0.099
582.400	-1.776	0.099
582.500	-18.703	0.099
582.600	2.826	0.099
582.700	-6.743	0.099
582.800	-5.786	0.099
582.900	-3.176	0.099
583.000	0.492	0.099
583.100	-7.723	0.099
583.200	-6.233	0.099
583.300	2.025	0.099
583.400	-7.630	0.099
583.500	2.547	0.099
583.600	-6.216	0.099
583.700	1.656	0.099
583.800	-6.352	0.099
583.900	0.364	0.099
584.000	-6.938	0.099
584.100	-6.264	0.099
584.200	-2.320	0.099
584.300	-6.248	0.099
584.400	-6.846	0.099
584.500	-7.277	0.099
584.600	1.623	0.099
584.700	-3.226	0.099
584.800	-2.532	0.099
584.900	2.928	0.099
585.000	-0.274	0.099
585.100	-3.540	0.099
585.200	-11.522	0.099
585.300	-7.986	0.099
585.400	-4.223	0.099
585.500	-14.463	0.099
585.600	-10.024	0.099
585.700	-2.161	0.099
585.800	-3.874	0.099
585.900	-9.950	0.099
586.000	6.043	0.099
586.100	-2.000	0.099
586.200	-4.675	0.099
586.300	-12.915	0.099
586.400	-6.802	0.099
586.500	-6.104	0.099
586.600	-3.660	0.099
586.700	-4.742	0.099
586.800	-1.378	0.099
586.900	0.897	0.099
587.000	0.693	0.099
587.100	-3.881	0.099
587.200	-8.454	0.099
587.300	-6.097	0.099
587.400	-4.168	0.099
587.500	-0.684	0.099
587.600	0.042	0.099
587.700	-9.874	0.099
587.800	-13.063	0.099
587.900	-8.947	0.099
588.000	1.507	0.099
588.100	-6.281	0.099
588.200	-1.296	0.099
588.300	-12.823	0.099
588.400	-5.411	0.099
588.500	-3.451	0.099
588.600	-4.128	0.099
588.700	-6.731	0.099
588.800	-7.837	0.099
588.900	-5.369	0.099
589.000	-1.148	0.099
589.100	-7.783	0.099
589.200	1.004	0.099
589.300	3.703	0.099
589.400	-9.767	0.099
589.500	-6.770	0.099
589.600	-12.269	0.099
589.700	-6.125	0.099
589.800	-8.197	0.099
589.900	-7.189	0.099
590.000	0.371	0.099
590.100	-6.235	0.099
590.200	-9.072	0.099
590.300	-7.511	0.099
590.400	-3.807	0.099
590.500	-9.267	0.099
590.600	-16.766	0.099
590.700	-8.788	0.099
590.800	1.104	0.099
590.900	11.391	0.099
591.000	-7.329	0.099
591.100	-6.130	0.099
591.200	-4.779	0.099
591.300	-2.663	0.099
591.400	-12.580	0.099
591.500	4.153	0.099
591.600	-5.788	0.099
591.700	-13.671	0.099
591.800	-6.229	0.099
591.900	-1.724	0.099
592.000	-6.137	0.099
592.100	-7.085	0.099
592.200	-6.488	0.099
592.300	-3.801	0.099
592.400	-10.663	0.099
592.500	2.606	0.099
592.600	-5.319	0.099
592.700	-12.762	0.099
592.800	-12.783	0.099
592.900	-1.018	0.099
593.000	-8.255	0.099
593.100	-4.027	0.099
593.200	-4.456	0.099
593.300	-8.706	0.099
593.400	-2.311	0.099
593.500	-21.713	0.099
593.600	-6.434	0.099
593.700	-3.788	0.099
593.800	-2.405	0.099
593.900	0.748	0.099
594.000	-13.772	0.099
594.100	-12.266	0.099
594.200	-0.949	0.099
594.300	-8.367	0.099
594.400	-2.087	0.099
594.500	1.656	0.099
594.600	-10.566	0.099
594.700	-3.765	0.099
594.800	-7.278	0.099
594.900	-11.951	0.099
595.000	-8.543	0.099
595.100	-0.968	0.099
595.200	-7.542	0.099
595.300	-5.886	0.099
595.400	-6.823	0.100
595.500	-8.681	0.100
595.600	1.498	0.100
595.700	-7.012	0.100
595.800	-3.449	0.100
595.900	-12.687	0.100
596.000	-12.042	0.100
596.100	-10.068	0.100
596.200	-9.960	0.100
596.300	-0.387	0.100
596.400	-6.927	0.100
596.500	-5.904	0.100
596.600	-5.620	0.100
596.700	-3.384	0.100
596.800	-10.048	0.100
596.900	-12.724	0.100
597.000	-11.102	0.100
597.100	-8.016	0.100
597.200	-1.359	0.100
597.300	-8.992	0.100
597.400	-7.553	0.100
597.500	-7.195	0.100
597.600	-5.744	0.100
597.700	0.725	0.100
597.800	-6.720	0.100
597.900	-5.956	0.100
598.000	-9.161	0.100
598.100	-5.661	0.100
598.200	-9.085	0.100
598.300	-9.379	0.100
598.400	-12.378	0.100
598.500	0.526	0.100
598.600	-10.297	0.100
598.700	-0.920	0.100
598.800	1.485	0.100
598.900	-6.730	0.100
599.000	-2.527	0.100
599.100	-12.875	0.100
599.200	-2.596	0.100
599.300	-1.363	0.100
599.400	-3.552	0.100
599.500	-4.220	0.100
599.600	-13.996	0.100
599.700	-5.873	0.100
599.800	-12.006	0.100
599.900	-3.801	0.100
600.000	-6.138	0.100
600.100	-7.323	0.100
600.200	-10.502	0.100
600.300	-0.408	0.100
600.400	-8.068	0.100
600.500	-8.571	0.100
600.600	-3.664	0.100
600.700	-3.214	0.100
600.800	-9.890	0.100
600.900	-2.898	0.100
601.000	-15.395	0.100
601.100	-5.127	0.100
601.200	0.941	0.100
601.300	-4.815	0.100
601.400	-6.264	0.100
601.500	-6.922	0.100
601.600	-3.647	0.100
601.700	-12.254	0.100
601.800	-7.090	0.100
601.900	-9.642	0.100
602.000	-6.850	0.100
602.100	-1.388	0.100
602.200	-7.278	0.100
602.300	-1.745	0.100
602.400	-12.381	0.100
602.500	-10.130	0.100
602.600	-6.970	0.100
602.700	-5.587	0.100
602.800	-3.513	0.100
602.900	-12.819	0.100
603.000	-3.653	0.100
603.100	-10.776	0.100
603.200	-5.772	0.100
603.300	-3.405	0.100
603.400	-1.903	0.100
603.500	-2.243	0.100
603.600	-6.831	0.100
603.700	-9.173	0.100
603.800	-5.205	0.100
603.900	-2.207	0.100
604.000	-17.302	0.100
604.100	-2.292	0.100
604.200	-12.233	0.100
604.300	-5.531	0.100
604.400	-0.465	0.100
604.500	-9.054	0.100
604.600	-6.227	0.100
604.700	-9.357	0.100
604.800	-6.074	0.100
604.900	-16.729	0.100
605.000	-9.403	0.100
605.100	-2.162	0.100
605.200	6.248	0.100
605.300	-9.432	0.100
605.400	-3.642	0.100
605.500	-8.876	0.100
605.600	-0.119	0.100
605.700	-7.744	0.100
605.800	-8.353	0.100
605.900	-6.929	0.100
606.000	-4.837	0.100
606.100	-9.190	0.100
606.200	-3.264	0.100
606.300	-2.899	0.100
606.400	1.388	0.100
606.500	-5.464	0.100
606.600	-10.626	0.100
606.700	-4.662	0.100
606.800	-9.176	0.100
606.900	-5.893	0.100
607.000	-5.795	0.100
607.100	-14.116	0.100
607.200	-2.020	0.100
607.300	-6.940	0.100
607.400	0.987	0.100
607.500	-3.957	0.100
607.600	-1.071	0.100
607.700	-10.520	0.100
607.800	-10.399	0.100
607.900	-7.057	0.100
608.000	-6.816	0.100
608.100	-2.387	0.100
608.200	-9.241	0.100
608.300	-11.112	0.100
608.400	-10.725	0.100
608.500	-4.176	0.100
608.600	-5.645	0.100
608.700	-5.589	0.100
608.800	-7.348	0.100
608.900	-7.229	0.100
609.000	-0.563	0.100
609.100	-9.882	0.100
609.200	-7.697	0.100
609.300	-6.445	0.100
609.400	-5.605	0.100
609.500	-7.544	0.100
609.600	-14.949	0.100
609.700	-13.395	0.100
609.800	-0.632	0.100
609.900	-3.193	0.100
610.000	-7.711	0.100
610.100	-11.072	0.100
610.200	-7.862	0.100
610.300	-6.377	0.100
610.400	-3.465	0.100
610.500	-1.331	0.100
610.600	-4.113	0.100
610.700	-6.103	0.100
610.800	-10.255	0.100
610.900	-10.897	0.100
611.000	-0.628	0.100
611.100	4.910	0.100
611.200	-12.517	0.100
611.300	-5.537	0.100
611.400	-12.891	0.100
611.500	-10.981	0.100
611.600	-4.293	0.100
611.700	-1.853	0.100
611.800	-5.588	0.100
611.900	-10.262	0.100
612.000	-4.641	0.100
612.100	-21.517	0.100
612.200	-0.601	0.100
612.300	-14.756	0.100
612.400	-12.783	0.100
612.500	-12.452	0.100
612.600	-5.160	0.100
612.700	-9.059	0.100
612.800	-7.017	0.100
612.900	-11.256	0.100
613.000	-10.533	0.100
613.100	-1.621	0.100
613.200	-13.608	0.100
613.300	-6.218	0.100
613.400	-4.229	0.100
613.500	0.668	0.100
613.600	-7.030	0.100
613.700	-4.466	0.100
613.800	-9.947	0.100
613.900	-3.241	0.100
614.000	-14.530	0.100
614.100	-7.624	0.100
614.200	-13.408	0.100
614.300	1.139	0.100
614.400	-6.713	0.100
614.500	-10.677	0.100
614.600	-11.759	0.100
614.700	-5.250	0.100
614.800	-0.149	0.100
614.900	-5.720	0.100
615.000	-16.815	0.100
615.100	-13.119	0.100
615.200	-5.615	0.100
615.300	-4.266	0.100
615.400	-3.988	0.100
615.500	-1.021	0.100
615.600	-4.676	0.100
615.700	-8.671	0.100
615.800	-13.410	0.100
615.900	-6.816	0.100
616.000	-13.645	0.100
616.100	-5.607	0.100
616.200	-2.411	0.100
616.300	-7.812	0.100
616.400	-9.001	0.100
616.500	-14.259	0.100
616.600	-4.741	0.100
616.700	-10.062	0.100
616.800	-11.739	0.100
616.900	-8.713	0.100
617.000	-0.821	0.100
617.100	-2.394	0.100
617.200	-6.842	0.100
617.300	-4.938	0.100
617.400	-9.961	0.100
617.500	-4.306	0.100
617.600	-7.680	0.100
617.700	-9.589	0.100
617.800	-13.380	0.100
617.900	-17.411	0.100
618.000	-12.743	0.100
618.100	0.166	0.100
618.200	-0.312	0.100
618.300	-13.036	0.100
618.400	-8.860	0.100
618.500	-5.159	0.100
618.600	-5.672	0.100
618.700	-12.044	0.100
618.800	0.372	0.100
618.900	-13.101	0.100
619.000	-11.258	0.100
619.100	-0.621	0.100
619.200	-10.982	0.100
619.300	-17.812	0.100
619.400	-8.805	0.100
619.500	-8.971	0.100
619.600	-2.164	0.100
619.700	-8.984	0.100
619.800	-23.698	0.100
619.900	-5.269	0.100
620.000	-8.164	0.100
620.100	-6.296	0.100
620.200	-3.865	0.100
620.300	-5.642	0.100
620.400	-11.675	0.100
620.500	-6.828	0.100
620.600	-6.187	0.100
620.700	-11.994	0.100
620.800	-14.682	0.100
620.900	-0.249	0.100
621.000	-8.381	0.100
621.100	-1.529	0.100
621.200	-7.729	0.100
621.300	-10.785	0.100
621.400	-7.691	0.100
621.500	-11.691	0.100
621.600	-5.173	0.100
621.700	-10.870	0.100
621.800	-4.757	0.100
621.900	-15.841	0.100
622.000	-17.057	0.100
622.100	-7.728	0.100
622.200	-9.030	0.100
622.300	-4.830	0.100
622.400	-4.982	0.100
622.500	-13.671	0.100
622.600	-0.197	0.100
622.700	-4.580	0.100
622.800	-5.810	0.100
622.900	-13.465	0.100
623.000	-13.296	0.100
623.100	-11.686	0.100
623.200	-9.458	0.100
623.300	-10.855	0.100
623.400	-8.900	0.100
623.500	-1.212	0.100
623.600	3.962	0.100
623.700	-16.552	0.100
623.800	-11.591	0.100
623.900	-2.210	0.100
624.000	-8.850	0.100
624.100	-4.684	0.100
624.200	-8.617	0.100
624.300	-13.579	0.100
624.400	-6.836	0.100
624.500	-7.758	0.100
624.600	-9.429	0.100
624.700	-10.385	0.100
624.800	-8.130	0.100
624.900	-10.267	0.100
625.000	-3.883	0.100
625.100	-4.550	0.100
625.200	-13.593	0.100
625.300	-3.749	0.100
625.400	-6.930	0.100
625.500	-14.960	0.100
625.600	-13.894	0.100
625.700	-2.769	0.100
625.800	-7.361	0.100
625.900	-6.458	0.100
626.000	-4.960	0.100
626.100	-2.861	0.100
626.200	-13.789	0.100
626.300	-13.913	0.100
626.400	-3.428	0.100
626.500	-8.266	0.100
626.600	-6.099	0.100
626.700	-19.094	0.100
626.800	-6.711	0.100
626.900	-11.345	0.100
627.000	-8.942	0.100
627.100	-11.247	0.100
627.200	-9.481	0.100
627.300	-10.947	0.100
627.400	-4.604	0.100
627.500	-3.532	0.100
627.600	-5.362	0.100
627.700	-6.938	0.100
627.800	-8.714	0.100
627.900	-3.317	0.100
628.000	-11.321	0.100
628.100	-6.023	0.100
628.200	-9.050	0.100
628.300	-8.770	0.100
628.400	-6.878	0.100
628.500	-1.990	0.100
628.600	-9.457	0.100
628.700	-9.394	0.100
628.800	-11.655	0.100
628.900	-13.997	0.100
629.000	-8.737	0.100
629.100	-5.865	0.100
629.200	-9.569	0.100
629.300	-11.974	0.100
629.400	-10.581	0.100
629.500	-9.491	0.100
629.600	-11.731	0.100
629.700	-10.441	0.100
629.800	-11.797	0.100
629.900	-14.229	0.100
630.000	-3.713	0.100
630.100	-3.969	0.100
630.200	-7.987	0.100
630.300	-10.511	0.100
630.400	-7.802	0.100
630.500	-15.399	0.100
630.600	-11.921	0.100
630.700	1.802	0.100
630.800	-10.848	0.100
630.900	-7.569	0.100
631.000	-2.831	0.100
631.100	5.016	0.100
631.200	-3.045	0.100
631.300	-10.761	0.100
631.400	-10.721	0.100
631.500	2.741	0.100
631.600	-1.824	0.100
631.700	-3.425	0.100
631.800	-4.764	0.100
631.900	-1.211	0.100
632.000	-5.871	0.100
632.100	0.064	0.100
632.200	-8.176	0.100
632.300	9.310	0.100
632.400	-5.435	0.100
632.500	5.782	0.100
632.600	3.357	0.100
632.700	-0.758	0.100
632.800	-11.102	0.100
632.900	-8.641	0.100
633.000	3.406	0.100
633.100	1.558	0.100
633.200	7.562	0.100
633.300	-3.121	0.100
633.400	1.525	0.100
633.500	3.348	0.100
633.600	-4.273	0.100
633.700	3.719	0.100
633.800	-2.490	0.100
633.900	-0.433	0.100
634.000	-3.941	0.100
634.100	0.598	0.100
634.200	4.588	0.100
634.300	-3.090	0.100
634.400	-6.002	0.100
634.500	2.591	0.100
634.600	3.396	0.100
634.700	-3.795	0.100
634.800	-14.458	0.100
634.900	0.456	0.100
635.000	2.858	0.100
635.100	-6.821	0.100
635.200	4.061	0.100
635.300	-2.411	0.100
635.400	4.689	0.100
635.500	-2.988	0.100
635.600	-1.740	0.100
635.700	3.756	0.100
635.800	-9.076	0.100
635.900	3.500	0.100
636.000	6.587	0.100
636.100	-2.861	0.100
636.200	-10.492	0.100
636.300	-8.400	0.100
636.400	-2.009	0.100
636.500	0.437	0.100
636.600	3.102	0.100
636.700	3.218	0.100
636.800	-3.015	0.100
636.900	6.515	0.100
637.000	0.123	0.100
637.100	0.766	0.100
637.200	0.703	0.100
637.300	-7.799	0.100
637.400	-4.864	0.100
637.500	6.682	0.100
637.600	11.661	0.100
637.700	0.336	0.100
637.800	11.983	0.100
637.900	-6.617	0.100
638.000	-9.382	0.100
638.100	4.434	0.100
638.200	4.463	0.100
638.300	4.708	0.100
638.400	-6.849	0.100
638.500	2.322	0.100
638.600	2.381	0.100
638.700	-0.390	0.100
638.800	-0.518	0.100
638.900	-1.125	0.100
639.000	-4.049	0.100
639.100	2.924	0.100
639.200	4.761	0.100
639.300	-2.242	0.100
639.400	-6.098	0.100
639.500	7.727	0.100
639.600	-1.024	0.100
639.700	4.274	0.100
639.800	-3.526	0.100
639.900	0.045	0.100
640.000	-1.554	0.100
640.100	0.609	0.100
640.200	2.764	0.100
640.300	4.230	0.100
640.400	3.903	0.100
640.500	-5.212	0.100
640.600	1.115	0.100
640.700	8.804	0.100
640.800	-4.293	0.100
640.900	-2.642	0.100
641.000	9.117	0.100
641.100	-2.275	0.100
641.200	8.600	0.100
641.300	1.272	0.100
641.400	1.857	0.100
641.500	7.977	0.100
641.600	9.994	0.100
641.700	7.224	0.100
641.800	12.162	0.100
641.900	-7.403	0.100
642.000	8.158	0.100
642.100	3.855	0.100
642.200	0.048	0.100
642.300	-1.195	0.100
642.400	8.717	0.100
642.500	0.469	0.100
642.600	5.904	0.100
642.700	-10.867	0.100
642.800	7.471	0.100
642.900	5.170	0.100
643.000	4.695	0.100
643.100	7.196	0.100
643.200	-6.691	0.100
643.300	4.461	0.100
643.400	10.175	0.100
643.500	7.837	0.100
643.600	2.342	0.100
643.700	-2.957	0.100
643.800	-2.979	0.100
643.900	5.604	0.100
644.000	9.337	0.100
644.100	4.051	0.100
644.200	10.898	0.100
644.300	2.236	0.100
644.400	4.095	0.100
644.500	-1.879	0.100
644.600	-7.459	0.100
644.700	9.990	0.100
644.800	5.951	0.100
644.900	5.114	0.100
645.000	5.396	0.100
645.100	7.048	0.100
645.200	-4.088	0.100
645.300	-1.759	0.100
645.400	9.180	0.100
645.500	1.261	0.100
645.600	8.526	0.100
645.700	-1.259	0.100
645.800	6.110	0.100
645.900	-0.041	0.100
646.000	13.018	0.100
646.100	8.743	0.100
646.200	12.659	0.100
646.300	5.582	0.100
646.400	5.043	0.100
646.500	9.603	0.100
646.600	0.397	0.100
646.700	3.075	0.100
646.800	6.796	0.100
646.900	3.174	0.100
647.000	13.319	0.100
647.100	1.857	0.100
647.200	8.944	0.100
647.300	3.019	0.100
647.400	1.485	0.100
647.500	0.541	0.100
647.600	12.430	0.100
647.700	7.268	0.100
647.800	7.902	0.100
647.900	9.385	0.100
648.000	4.749	0.100
648.100	6.309	0.100
648.200	-1.656	0.100
648.300	7.599	0.100
648.400	5.641	0.100
648.500	2.739	0.100
648.600	9.547	0.100
648.700	0.989	0.100
648.800	12.834	0.100
648.900	9.607	0.100
649.000	2.250	0.100
649.100	4.189	0.100
649.200	3.812	0.100
649.300	5.339	0.100
649.400	5.492	0.100
649.500	-0.767	0.100
649.600	7.236	0.100
649.700	14.755	0.100
649.800	2.632	0.100
649.900	3.084	0.100
650.000	5.551	0.100
650.100	8.171	0.100
650.200	7.952	0.100
650.300	11.353	0.100
650.400	3.757	0.100
650.500	11.508	0.100
650.600	-0.414	0.100
650.700	4.390	0.100
650.800	7.765	0.100
650.900	6.404	0.100
651.000	13.520	0.100
651.100	3.093	0.100
651.200	0.984	0.100
651.300	16.133	0.100
651.400	10.733	0.100
651.500	18.931	0.100
651.600	7.230	0.100
651.700	10.585	0.100
651.800	9.942	0.100
651.900	9.733	0.100
652.000	3.625	0.100
652.100	3.074	0.100
652.200	7.956	0.100
652.300	6.186	0.100
652.400	7.146	0.100
652.500	12.407	0.100
652.600	9.194	0.100
652.700	10.287	0.100
652.800	10.458	0.100
652.900	10.801	0.100
653.000	6.383	0.100
653.100	8.621	0.100
653.200	2.905	0.100
653.300	4.118	0.100
653.400	3.627	0.100
653.500	11.998	0.100
653.600	10.076	0.100
653.700	7.925	0.100
653.800	3.706	0.100
653.900	5.477	0.100
654.000	10.094	0.100
654.100	10.554	0.100
654.200	4.701	0.100
654.300	10.527	0.100
654.400	8.862	0.100
654.500	9.156	0.100
654.600	12.613	0.100
654.700	7.800	0.100
654.800	10.657	0.100
654.900	-6.772	0.100
655.000	18.663	0.100
655.100	5.216	0.100
655.200	8.324	0.100
655.300	11.938	0.100
655.400	13.870	0.100
655.500	9.254	0.100
655.600	7.101	0.100
655.700	5.079	0.100
655.800	17.499	0.100
655.900	8.176	0.100
656.000	9.415	0.100
656.100	11.005	0.100
656.200	13.032	0.100
656.300	8.662	0.100
656.400	10.701	0.100
656.500	11.475	0.100
656.600	7.645	0.100
656.700	8.441	0.100
656.800	0.664	0.100
656.900	10.153	0.100
657.000	11.887	0.100
657.100	13.529	0.100
657.200	10.203	0.100
657.300	13.647	0.100
657.400	10.511	0.100
657.500	11.091	0.100
657.600	10.324	0.100
657.700	11.197	0.100
657.800	20.297	0.100
657.900	4.519	0.100
658.000	2.821	0.100
658.100	6.611	0.100
658.200	12.467	0.100
658.300	11.292	0.100
658.400	14.311	0.100
658.500	14.217	0.100
658.600	16.045	0.100
658.700	1.781	0.100
658.800	11.475	0.100
658.900	11.791	0.100
659.000	6.296	0.100
659.100	16.977	0.100
659.200	4.854	0.100
659.300	14.266	0.100
659.400	1.248	0.100
659.500	11.525	0.100
659.600	12.524	0.100
659.700	18.668	0.100
659.800	13.978	0.100
659.900	9.206	0.100
660.000	8.652	0.100
660.100	8.994	0.100
660.200	7.508	0.100
660.300	19.168	0.100
660.400	15.263	0.100
660.500	14.841	0.100
660.600	10.692	0.100
660.700	2.288	0.100
660.800	8.322	0.100
660.900	15.220	0.100
661.000	10.536	0.100
661.100	9.618	0.100
661.200	10.036	0.100
661.300	17.345	0.100
661.400	17.524	0.100
661.500	12.261	0.100
661.600	12.011	0.100
661.700	11.904	0.100
661.800	10.408	0.100
661.900	19.634	0.100
662.000	2.086	0.100
662.100	11.668	0.100
662.200	13.493	0.100
662.300	13.687	0.100
662.400	16.665	0.100
662.500	12.222	0.100
662.600	14.898	0.100
662.700	9.015	0.100
662.800	17.332	0.100
662.900	14.848	0.100
663.000	14.486	0.100
663.100	14.529	0.100
663.200	13.412	0.100
663.300	13.687	0.100
663.400	11.398	0.100
663.500	19.417	0.100
663.600	16.654	0.100
663.700	10.917	0.100
663.800	13.013	0.100
663.900	15.275	0.100
664.000	19.715	0.100
664.100	11.654	0.100
664.200	15.609	0.100
664.300	15.938	0.100
664.400	4.232	0.100
664.500	0.139	0.100
664.600	10.708	0.100
664.700	16.656	0.100
664.800	17.222	0.100
664.900	19.907	0.100
665.000	16.801	0.100
665.100	10.989	0.100
665.200	20.430	0.100
665.300	14.209	0.100
665.400	12.270	0.100
665.500	12.556	0.100
665.600	20.836	0.100
665.700	8.656	0.100
665.800	17.976	0.100
665.900	15.177	0.100
666.000	17.677	0.100
666.100	11.990	0.100
666.200	12.053	0.100
666.300	16.616	0.100
666.400	8.420	0.100
666.500	17.774	0.100
666.600	9.050	0.100
666.700	12.890	0.100
666.800	14.193	0.100
666.900	9.141	0.100
667.000	16.717	0.100
667.100	9.575	0.100
667.200	17.893	0.100
667.300	15.517	0.100
667.400	14.829	0.100
667.500	17.654	0.100
667.600	8.298	0.100
667.700	12.720	0.100
667.800	18.209	0.100
667.900	14.377	0.100
668.000	8.844	0.100
668.100	5.788	0.100
668.200	13.904	0.100
668.300	15.063	0.100
668.400	9.644	0.100
668.500	14.440	0.100
668.600	17.636	0.100
668.700	16.337	0.100
668.800	17.518	0.100
668.900	19.025	0.100
669.000	13.366	0.100
669.100	14.324	0.100
669.200	18.777	0.100
669.300	18.541	0.100
669.400	5.908	0.100
669.500	10.515	0.100
669.600	13.900	0.100
669.700	25.835	0.100
669.800	17.484	0.100
669.900	9.563	0.100
670.000	11.256	0.100
670.100	13.839	0.100
670.200	14.735	0.100
670.300	15.175	0.100
670.400	24.990	0.100
670.500	12.638	0.100
670.600	8.787	0.100
670.700	17.665	0.100
670.800	21.248	0.100
670.900	14.688	0.100
671.000	18.364	0.100
671.100	14.980	0.100
671.200	19.575	0.100
671.300	15.156	0.100
671.400	9.996	0.100
671.500	12.655	0.100
671.600	14.959	0.100
671.700	21.206	0.100
671.800	18.700	0.100
671.900	7.356	0.100
672.000	7.284	0.100
672.100	19.723	0.100
672.200	19.213	0.100
672.300	17.012	0.100
672.400	14.828	0.100
672.500	16.801	0.100
672.600	23.907	0.100
672.700	15.150	0.100
672.800	20.503	0.100
672.900	9.782	0.100
673.000	17.722	0.100
673.100	11.479	0.100
673.200	18.065	0.100
673.300	16.601	0.100
673.400	12.995	0.100
673.500	25.922	0.100
673.600	15.309	0.100
673.700	20.750	0.100
673.800	11.949	0.100
673.900	17.826	0.100
674.000	11.394	0.100
674.100	14.528	0.100
674.200	12.820	0.100
674.300	17.258	0.100
674.400	15.612	0.100
674.500	14.922	0.100
674.600	17.021	0.100
674.700	15.783	0.100
674.800	18.635	0.100
674.900	20.796	0.100
675.000	19.253	0.100
675.100	21.641	0.100
675.200	20.735	0.100
675.300	9.104	0.100
675.400	24.807	0.100
675.500	20.262	0.100
675.600	17.610	0.100
675.700	2.712	0.100
675.800	14.731	0.100
675.900	26.416	0.100
676.000	21.762	0.100
676.100	19.859	0.100
676.200	18.284	0.100
676.300	10.533	0.100
676.400	16.191	0.100
676.500	12.779	0.100
676.600	13.100	0.100
676.700	23.047	0.100
676.800	16.345	0.100
676.900	18.847	0.100
677.000	16.625	0.100
677.100	21.249	0.100
677.200	21.860	0.100
677.300	21.605	0.100
677.400	15.853	0.100
677.500	19.701	0.100
677.600	17.660	0.100
677.700	18.705	0.100
677.800	21.147	0.100
677.900	14.119	0.100
678.000	10.460	0.100
678.100	17.906	0.100
678.200	21.151	0.100
678.300	18.578	0.100
678.400	16.342	0.100
678.500	12.410	0.100
678.600	12.872	0.100
678.700	16.338	0.100
678.800	21.014	0.100
678.900	21.223	0.100
679.000	17.617	0.100
679.100	18.957	0.100
679.200	8.757	0.100
679.300	15.959	0.100
679.400	17.927	0.100
679.500	26.074	0.100
679.600	21.026	0.100
679.700	10.423	0.100
679.800	23.180	0.100
679.900	17.480	0.100
680.000	20.512	0.100
680.100	18.685	0.100
680.200	22.834	0.100
680.300	26.376	0.100
680.400	18.832	0.100
680.500	22.134	0.100
680.600	19.221	0.100
680.700	14.110	0.100
680.800	6.197	0.100
680.900	20.009	0.100
681.000	19.840	0.100
681.100	16.642	0.100
681.200	16.136	0.100
681.300	18.152	0.100
681.400	13.617	0.100
681.500	14.879	0.100
681.600	22.881	0.100
681.700	20.057	0.100
681.800	15.922	0.100
681.900	23.527	0.100
682.000	25.218	0.100
682.100	15.408	0.100
682.200	23.005	0.100
682.300	18.418	0.100
682.400	21.494	0.100
682.500	14.615	0.100
682.600	22.639	0.100
682.700	17.482	0.100
682.800	18.215	0.100
682.900	14.316	0.100
683.000	23.171	0.100
683.100	5.491	0.100
683.200	20.024	0.100
683.300	24.818	0.100
683.400	13.769	0.100
683.500	21.049	0.100
683.600	17.220	0.100
683.700	18.386	0.100
683.800	13.451	0.100
683.900	19.456	0.100
684.000	19.270	0.100
684.100	24.490	0.100
684.200	15.641	0.100
684.300	23.492	0.100
684.400	21.865	0.100
684.500	18.506	0.100
684.600	20.920	0.100
684.700	14.441	0.100
684.800	22.550	0.100
684.900	15.524	0.100
685.000	16.465	0.100
685.100	10.522	0.100
685.200	17.478	0.100
685.300	24.977	0.100
685.400	20.393	0.100
685.500	28.594	0.100
685.600	7.441	0.100
685.700	24.199	0.100
685.800	24.296	0.100
685.900	16.536	0.100
686.000	24.039	0.100
686.100	8.912	0.100
686.200	20.068	0.100
686.300	29.666	0.100
686.400	24.170	0.100
686.500	13.849	0.100
686.600	23.364	0.100
686.700	15.016	0.100
686.800	22.240	0.100
686.900	17.199	0.100
687.000	13.149	0.100
687.100	19.974	0.100
687.200	25.768	0.100
687.300	21.143	0.100
687.400	21.108	0.100
687.500	14.775	0.100
687.600	12.408	0.100
687.700	18.661	0.100
687.800	19.988	0.100
687.900	15.322	0.100
688.000	12.586	0.100
688.100	12.768	0.100
688.200	21.872	0.100
688.300	19.923	0.100
688.400	25.477	0.100
688.500	27.449	0.100
688.600	17.598	0.100
688.700	21.494	0.100
688.800	24.992	0.100
688.900	12.758	0.100
689.000	24.273	0.100
689.100	20.150	0.100
689.200	28.864	0.100
689.300	17.874	0.100
689.400	10.358	0.100
689.500	19.517	0.100
689.600	19.922	0.100
689.700	21.808	0.100
689.800	17.975	0.100
689.900	21.032	0.100
690.000	17.580	0.100
690.100	23.618	0.100
690.200	18.161	0.100
690.300	10.914	0.100
690.400	15.931	0.100
690.500	15.256	0.100
690.600	18.596	0.100
690.700	16.970	0.100
690.800	21.581	0.100
690.900	17.941	0.100
691.000	11.856	0.100
691.100	17.320	0.100
691.200	16.688	0.100
691.300	10.772	0.100
691.400	14.731	0.100
691.500	14.582	0.100
691.600	10.976	0.100
691.700	11.726	0.100
691.800	18.324	0.100
691.900	13.131	0.100
692.000	17.743	0.100
692.100	12.157	0.100
692.200	12.199	0.100
692.300	7.242	0.100
692.400	3.950	0.100
692.500	21.759	0.100
692.600	13.434	0.100
692.700	2.937	0.100
692.800	12.274	0.100
692.900	14.884	0.100
693.000	11.434	0.100
693.100	15.696	0.100
693.200	-0.889	0.100
693.300	9.335	0.100
693.400	16.582	0.100
693.500	11.520	0.100
693.600	8.137	0.100
693.700	18.631	0.100
693.800	21.545	0.100
693.900	1.971	0.100
694.000	11.281	0.100
694.100	11.898	0.100
694.200	15.415	0.100
694.300	16.399	0.100
694.400	3.648	0.100
694.500	11.539	0.100
694.600	16.132	0.100
694.700	11.049	0.100
694.800	-2.916	0.100
694.900	9.883	0.100
695.000	11.270	0.100
695.100	10.004	0.100
695.200	20.290	0.100
695.300	13.411	0.100
695.400	12.323	0.100
695.500	9.657	0.100
695.600	6.532	0.100
695.700	12.404	0.100
695.800	10.494	0.100
695.900	11.346	0.100
696.000	3.815	0.100
696.100	14.685	0.100
696.200	5.780	0.100
696.300	8.670	0.100
696.400	15.456	0.100
696.500	12.632	0.100
696.600	2.872	0.100
696.700	0.582	0.100
696.800	15.956	0.100
696.900	9.627	0.100
697.000	9.606	0.100
697.100	5.438	0.100
697.200	1.681	0.100
697.300	4.726	0.100
697.400	9.508	0.100
697.500	12.928	0.100
697.600	13.949	0.100
697.700	14.030	0.100
697.800	0.343	0.100
697.900	5.209	0.100
698.000	3.528	0.100
698.100	11.365	0.100
698.200	6.358	0.100
698.300	5.418	0.100
698.400	11.415	0.100
698.500	7.890	0.100
698.600	2.001	0.100
698.700	6.933	0.100
698.800	5.007	0.100
698.900	12.582	0.100
699.000	10.635	0.100
699.100	6.611	0.100
699.200	5.468	0.100
699.300	5.608	0.100
699.400	6.444	0.100
699.500	1.805	0.100
699.600	13.358	0.100
699.700	17.872	0.100
699.800	18.041	0.100
699.900	7.462	0.100
700.000	9.743	0.100
700.100	7.476	0.100
700.200	12.963	0.100
700.300	0.845	0.100
700.400	6.603	0.100
700.500	11.961	0.100
700.600	10.221	0.100
700.700	8.600	0.100
700.800	11.692	0.100
700.900	5.424	0.100
701.000	6.459	0.100
701.100	8.887	0.100
701.200	4.455	0.100
701.300	6.789	0.100
701.400	9.995	0.100
701.500	5.750	0.100
701.600	10.709	0.100
701.700	10.147	0.100
701.800	8.738	0.100
701.900	3.348	0.100
702.000	6.073	0.100
702.100	7.070	0.100
702.200	3.566	0.100
702.300	8.565	0.100
702.400	13.725	0.100
702.500	-2.553	0.100
702.600	6.005	0.100
702.700	9.791	0.100
702.800	14.763	0.100
702.900	1.212	0.100
703.000	7.594	0.100
703.100	4.533	0.100
703.200	3.025	0.100
703.300	-2.432	0.100
703.400	6.018	0.100
703.500	12.618	0.100
703.600	7.903	0.100
703.700	8.165	0.100
703.800	8.392	0.100
703.900	11.341	0.100
704.000	8.062	0.100
704.100	-4.337	0.100
704.200	2.632	0.100
704.300	15.196	0.100
704.400	8.748	0.100
704.500	9.814	0.100
704.600	6.062	0.100
704.700	8.073	0.100
704.800	12.734	0.100
704.900	-4.471	0.100
705.000	10.841	0.100
705.100	1.805	0.100
705.200	1.165	0.100
705.300	14.898	0.100
705.400	11.943	0.100
705.500	4.742	0.100
705.600	10.633	0.100
705.700	-3.469	0.100
705.800	5.231	0.100
705.900	-4.125	0.100
706.000	12.105	0.100
706.100	15.121	0.100
706.200	9.749	0.100
706.300	5.061	0.100
706.400	5.130	0.100
706.500	5.716	0.100
706.600	-4.056	0.100
706.700	3.277	0.100
706.800	5.502	0.100
706.900	5.860	0.100
707.000	2.263	0.100
707.100	8.818	0.100
707.200	9.659	0.100
707.300	-2.761	0.100
707.400	8.640	0.100
707.500	3.680	0.100
707.600	-0.433	0.100
707.700	2.429	0.100
707.800	-1.498	0.100
707.900	-1.268	0.100
708.000	6.230	0.100
708.100	14.106	0.100
708.200	6.618	0.100
708.300	4.898	0.100
708.400	1.761	0.100
708.500	5.788	0.100
708.600	2.185	0.100
708.700	9.951	0.100
708.800	2.295	0.100
708.900	7.604	0.100
709.000	-3.125	0.100
709.100	-3.857	0.100
709.200	-0.120	0.100
709.300	4.440	0.100
709.400	-3.341	0.100
709.500	4.565	0.100
709.600	0.807	0.100
709.700	3.280	0.100
709.800	12.422	0.100
709.900	10.340	0.100
710.000	1.750	0.100
710.100	2.315	0.100
710.200	-4.530	0.100
710.300	7.507	0.100
710.400	14.869	0.100
710.500	5.793	0.100
710.600	5.946	0.100
710.700	-8.249	0.100
710.800	1.097	0.100
710.900	5.015	0.100
711.000	-1.179	0.100
711.100	-1.216	0.100
711.200	3.155	0.100
711.300	9.956	0.100
711.400	5.341	0.100
711.500	-0.158	0.100
711.600	-5.019	0.100
711.700	10.453	0.100
711.800	4.536	0.100
711.900	7.952	0.100
712.000	6.966	0.100
712.100	-7.162	0.100
712.200	-2.108	0.100
712.300	0.507	0.100
712.400	-0.198	0.100
712.500	6.616	0.100
712.600	-2.035	0.100
712.700	0.652	0.100
712.800	2.937	0.100
712.900	-0.311	0.100
713.000	1.693	0.100
713.100	-2.500	0.100
713.200	7.648	0.100
713.300	0.002	0.100
713.400	8.302	0.100
713.500	-8.260	0.100
713.600	2.190	0.100
713.700	7.251	0.100
713.800	-0.386	0.100
713.900	-4.088	0.100
714.000	7.654	0.100
714.100	9.564	0.100
714.200	1.614	0.100
714.300	-4.355	0.100
714.400	11.523	0.100
714.500	-0.110	0.100
714.600	-3.579	0.100
714.700	10.267	0.100
714.800	0.668	0.100
714.900	-7.127	0.100
715.000	5.201	0.100
715.100	0.715	0.100
715.200	6.304	0.100
715.300	7.448	0.100
715.400	4.042	0.100
715.500	-2.033	0.100
715.600	5.153	0.100
715.700	2.556	0.100
715.800	-5.225	0.100
715.900	-2.937	0.100
716.000	-3.912	0.100
716.100	6.094	0.100
716.200	-1.568	0.100
716.300	3.393	0.100
716.400	-1.632	0.100
716.500	5.649	0.100
716.600	2.832	0.100
716.700	-3.223	0.100
716.800	-4.661	0.100
716.900	-0.162	0.100
717.000	-6.126	0.100
717.100	-0.531	0.100
717.200	-0.844	0.100
717.300	7.764	0.100
717.400	3.628	0.100
717.500	3.368	0.100
717.600	4.084	0.100
717.700	-8.876	0.100
717.800	1.045	0.100
717.900	-7.601	0.100
718.000	-1.757	0.100
718.100	4.489	0.100
718.200	3.403	0.100
718.300	-0.108	0.100
718.400	-12.156	0.100
718.500	7.087	0.100
718.600	5.284	0.100
718.700	-0.639	0.100
718.800	0.725	0.100
718.900	1.267	0.100
719.000	3.131	0.100
719.100	-1.250	0.100
719.200	-1.213	0.100
719.300	-3.031	0.100
719.400	3.010	0.100
719.500	-3.976	0.100
719.600	-3.725	0.100
719.700	1.780	0.100
719.800	3.755	0.100
719.900	-9.786	0.100
720.000	11.323	0.100
720.100	-6.099	0.100
720.200	0.647	0.100
720.300	-10.093	0.100
720.400	-0.037	0.100
720.500	0.546	0.100
720.600	2.248	0.100
720.700	-4.040	0.100
720.800	2.594	0.100
720.900	-11.407	0.100
721.000	3.742	0.100
721.100	1.076	0.100
721.200	0.360	0.100
721.300	-3.513	0.100
721.400	-8.430	0.100
721.500	-4.306	0.100
721.600	8.903	0.100
721.700	7.993	0.100
721.800	-0.837	0.100
721.900	-0.278	0.100
722.000	0.592	0.100
722.100	0.193	0.100
722.200	-0.434	0.100
722.300	-8.209	0.100
722.400	3.968	0.100
722.500	-9.700	0.100
722.600	-6.057	0.100
722.700	0.216	0.100
722.800	0.139	0.100
722.900	-6.093	0.100
723.000	6.641	0.100
723.100	1.822	0.100
723.200	8.018	0.100
723.300	5.537	0.100
723.400	-2.511	0.100
723.500	-6.026	0.100
723.600	-6.149	0.100
723.700	-6.847	0.100
723.800	-3.085	0.100
723.900	-21.204	0.100
724.000	-1.998	0.100
724.100	11.712	0.100
724.200	-5.829	0.100
724.300	-5.946	0.100
724.400	-9.138	0.100
724.500	3.854	0.100
724.600	3.327	0.100
724.700	-2.332	0.100
724.800	-5.620	0.100
724.900	-7.181	0.100
725.000	2.514	0.100
725.100	-10.635	0.100
725.200	-3.399	0.100
725.300	0.256	0.100
725.400	0.349	0.100
725.500	-8.885	0.100
725.600	1.502	0.100
725.700	2.805	0.100
725.800	-2.068	0.100
725.900	-9.030	0.100
726.000	-2.382	0.100
726.100	-2.097	0.100
726.200	-7.942	0.100
726.300	1.345	0.100
726.400	-3.383	0.100
726.500	-0.057	0.100
726.600	2.464	0.100
726.700	0.336	0.100
726.800	-14.276	0.100
726.900	-1.813	0.100
727.000	-6.870	0.100
727.100	6.132	0.100
727.200	0.367	0.100
727.300	-16.160	0.100
727.400	6.930	0.100
727.500	-1.151	0.100
727.600	-7.899	0.100
727.700	-9.341	0.100
727.800	3.055	0.100
727.900	-2.552	0.100
728.000	-4.931	0.100
728.100	-10.768	0.100
728.200	-7.151	0.100
728.300	1.948	0.100
728.400	2.828	0.100
728.500	0.535	0.100
728.600	-3.375	0.100
728.700	0.735	0.100
728.800	1.694	0.100
728.900	-1.023	0.100
729.000	-3.454	0.100
729.100	-6.004	0.100
729.200	-13.454	0.100
729.300	-3.894	0.100
729.400	-14.086	0.100
729.500	-9.393	0.100
729.600	-3.568	0.100
729.700	-1.219	0.100
729.800	0.303	0.100
729.900	6.630	0.100
730.000	5.992	0.100
730.100	0.686	0.100
730.200	-6.969	0.100
730.300	-2.107	0.100
730.400	-4.254	0.100
730.500	1.619	0.100
730.600	-4.441	0.100
730.700	-11.844	0.100
730.800	-0.931	0.100
730.900	-3.418	0.100
731.000	-2.985	0.100
731.100	-8.980	0.100
731.200	-9.858	0.100
731.300	-6.499	0.100
731.400	-2.646	0.100
731.500	-5.961	0.100
731.600	-1.801	0.100
731.700	1.569	0.100
731.800	-2.156	0.100
731.900	-18.887	0.100
732.000	3.325	0.100
732.100	-4.081	0.100
732.200	-4.704	0.100
732.300	0.059	0.100
732.400	-8.612	0.100
732.500	-8.030	0.100
732.600	-5.283	0.100
732.700	-13.403	0.100
732.800	-6.748	0.100
732.900	-7.217	0.100
733.000	11.186	0.100
733.100	-1.348	0.100
733.200	-6.705	0.100
733.300	-4.459	0.100
733.400	-8.841	0.100
733.500	-8.038	0.100
733.600	-1.840	0.100
733.700	-4.298	0.100
733.800	-4.818	0.100
733.900	-4.717	0.100
734.000	-9.375	0.100
734.100	4.793	0.100
734.200	-7.424	0.100
734.300	-4.627	0.100
734.400	-7.449	0.100
734.500	-8.887	0.100
734.600	-2.906	0.100
734.700	-12.021	0.100
734.800	-5.668	0.100
734.900	-0.307	0.100
735.000	-9.217	0.100
735.100	-5.544	0.100
735.200	-7.035	0.100
735.300	-7.924	0.100
735.400	-13.535	0.100
735.500	0.387	0.100
735.600	-0.928	0.100
735.700	-4.256	0.100
735.800	-2.586	0.100
735.900	0.203	0.100
736.000	0.094	0.100
736.100	-4.799	0.100
736.200	-4.865	0.100
736.300	-5.772	0.100
736.400	-12.022	0.100
736.500	-4.553	0.100
736.600	4.920	0.100
736.700	-1.087	0.100
736.800	2.672	0.100
736.900	-0.642	0.100
737.000	-5.002	0.100
737.100	-1.845	0.100
737.200	-7.990	0.100
737.300	-2.764	0.100
737.400	-1.620	0.100
737.500	-4.452	0.100
737.600	2.326	0.100
737.700	4.946	0.100
737.800	-9.199	0.100
737.900	-6.649	0.100
738.000	-4.466	0.100
738.100	-9.255	0.100
738.200	-8.369	0.100
738.300	-9.175	0.100
738.400	-6.767	0.100
738.500	-2.417	0.100
738.600	2.576	0.100
738.700	-6.017	0.100
738.800	-7.434	0.100
738.900	-8.736	0.100
739.000	-4.552	0.100
739.100	-7.708	0.100
739.200	-5.907	0.100
739.300	-2.290	0.100
739.400	-4.925	0.100
739.500	-3.743	0.100
739.600	-11.452	0.100
739.700	5.659	0.100
739.800	-12.152	0.100
739.900	-5.496	0.100
740.000	-7.000	0.100
740.100	-6.629	0.100
740.200	-4.472	0.100
740.300	-16.560	0.100
740.400	-14.200	0.100
740.500	2.826	0.100
740.600	2.594	0.100
740.700	1.339	0.100
740.800	-15.022	0.100
740.900	-6.414	0.100
741.000	2.119	0.100
741.100	-1.754	0.100
741.200	-3.037	0.100
741.300	-6.597	0.100
741.400	-9.235	0.100
741.500	-8.194	0.100
741.600	-10.565	0.100
741.700	-9.979	0.100
741.800	-5.571	0.100
741.900	-1.037	0.100
742.000	-16.357	0.100
742.100	-8.303	0.100
742.200	-5.613	0.100
742.300	-8.060	0.100
742.400	-10.712	0.100
742.500	-6.520	0.100
742.600	-3.315	0.100
742.700	2.249	0.100
742.800	-6.090	0.100
742.900	-6.894	0.100
743.000	-9.462	0.100
743.100	-11.123	0.100
743.200	4.344	0.100
743.300	-5.216	0.100
743.400	-4.091	0.100
743.500	-3.754	0.100
743.600	-2.495	0.100
743.700	-7.412	0.100
743.800	-7.549	0.100
743.900	-11.825	0.100
744.000	-8.812	0.100
744.100	1.612	0.100
744.200	-10.338	0.100
744.300	-7.066	0.100
744.400	-6.975	0.100
744.500	-7.237	0.100
744.600	3.765	0.100
744.700	-3.454	0.100
744.800	-10.699	0.100
744.900	-8.152	0.100
745.000	-9.509	0.100
745.100	-8.089	0.100
745.200	-8.145	0.100
745.300	-6.481	0.100
745.400	-13.980	0.100
745.500	-1.091	0.100
745.600	-6.124	0.100
745.700	-7.127	0.100
745.800	-4.546	0.100
745.900	-5.585	0.100
746.000	-9.694	0.100
746.100	-3.059	0.100
746.200	-4.172	0.100
746.300	-8.955	0.100
746.400	-15.706	0.100
746.500	-11.878	0.100
746.600	-10.151	0.100
746.700	-5.129	0.100
746.800	-2.490	0.100
746.900	-0.483	0.100
747.000	-12.275	0.100
747.100	-12.866	0.100
747.200	-7.107	0.100
747.300	-8.965	0.100
747.400	-3.785	0.100
747.500	-6.178	0.100
747.600	6.144	0.100
747.700	-11.824	0.100
747.800	-6.035	0.100
747.900	-0.008	0.100
748.000	-9.561	0.100
748.100	-2.493	0.100
748.200	-4.712	0.100
748.300	-10.722	0.100
748.400	-5.383	0.100
748.500	-10.954	0.100
748.600	-0.639	0.100
748.700	-11.511	0.100
748.800	-2.136	0.100
748.900	-6.680	0.100
749.000	-7.536	0.100
749.100	-6.833	0.100
749.200	-11.798	0.100
749.300	-5.882	0.100
749.400	-5.649	0.100
749.500	-4.726	0.100
749.600	-5.268	0.100
749.700	-6.661	0.100
749.800	0.794	0.100
749.900	-8.373	0.100
750.000	-5.176	0.100
750.100	-7.346	0.100
750.200	-8.549	0.100
750.300	-0.467	0.100
750.400	-12.548	0.100
750.500	-9.753	0.100
750.600	-5.346	0.100
750.700	-2.132	0.100
750.800	-7.628	0.100
750.900	-0.240	0.100
751.000	-0.475	0.100
751.100	-6.378	0.100
751.200	-2.703	0.100
751.300	-10.858	0.100
751.400	-6.406	0.100
751.500	-4.273	0.100
751.600	-1.666	0.100
751.700	-11.186	0.100
751.800	-7.492	0.100
751.900	-5.729	0.100
752.000	-15.306	0.100
752.100	-6.142	0.100
752.200	-5.672	0.100
752.300	-11.483	0.100
752.400	-6.874	0.100
752.500	-6.898	0.100
752.600	-14.558	0.100
752.700	-3.524	0.100
752.800	-5.215	0.100
752.900	-9.298	0.100
753.000	-11.491	0.100
753.100	-8.450	0.100
753.200	-5.032	0.100
753.300	-9.518	0.100
753.400	-17.064	0.100
753.500	-6.926	0.100
753.600	-3.151	0.100
753.700	-2.557	0.100
753.800	-9.188	0.100
753.900	-9.274	0.100
754.000	-2.632	0.100
754.100	-5.658	0.100
754.200	-5.400	0.100
754.300	-7.100	0.100
754.400	-9.735	0.100
754.500	-9.949	0.100
754.600	-7.182	0.100
754.700	-12.495	0.100
754.800	-5.425	0.100
754.900	-5.414	0.100
755.000	-8.933	0.100
755.100	-12.332	0.100
755.200	-8.330	0.100
755.300	-0.901	0.100
755.400	-3.547	0.100
755.500	-3.569	0.100
755.600	-16.338	0.100
755.700	-4.121	0.100
755.800	-11.142	0.100
755.900	-7.481	0.100
756.000	-5.875	0.100
756.100	-3.954	0.100
756.200	-16.349	0.100
756.300	-16.530	0.100
756.400	-9.546	0.100
756.500	-3.882	0.100
756.600	-1.620	0.100
756.700	-0.031	0.100
756.800	-6.072	0.100
756.900	-2.908	0.100
757.000	-10.506	0.100
757.100	-5.041	0.100
757.200	-5.580	0.100
757.300	-3.437	0.100
757.400	0.372	0.100
757.500	-17.720	0.100
757.600	-15.310	0.100
757.700	-7.558	0.100
757.800	1.809	0.100
757.900	-1.918	0.100
758.000	-4.194	0.100
758.100	-10.405	0.100
758.200	-16.639	0.100
758.300	-2.684	0.100
758.400	-8.718	0.100
758.500	-6.310	0.100
758.600	-4.305	0.100
758.700	0.748	0.100
758.800	-5.911	0.100
758.900	-9.456	0.100
759.000	-11.188	0.100
759.100	-5.320	0.100
759.200	-6.556	0.100
759.300	-0.390	0.100
759.400	-12.288	0.100
759.500	-6.924	0.100
759.600	-3.650	0.100
759.700	-9.347	0.100
759.800	-10.245	0.100
759.900	-4.500	0.100
760.000	-0.551	0.100
760.100	-9.542	0.100
760.200	-8.804	0.100
760.300	-7.829	0.100
760.400	-16.299	0.100
760.500	-13.394	0.100
760.600	-13.273	0.100
760.700	-3.263	0.100
760.800	-10.118	0.100
760.900	-12.637	0.100
761.000	9.927	0.100
761.100	-12.492	0.100
761.200	-15.068	0.100
761.300	-4.245	0.100
761.400	-17.629	0.100
761.500	-3.048	0.100
761.600	0.638	0.100
761.700	-7.250	0.100
761.800	-7.265	0.100
761.900	-10.430	0.100
762.000	-8.501	0.100
762.100	-7.612	0.100
762.200	-1.915	0.100
762.300	-17.187	0.100
762.400	-3.815	0.100
762.500	-7.881	0.100
762.600	-5.859	0.100
762.700	-8.051	0.100
762.800	-11.989	0.100
762.900	-3.975	0.100
763.000	-6.790	0.100
763.100	-4.769	0.100
763.200	-2.614	0.100
763.300	-9.711	0.100
763.400	-15.543	0.100
763.500	-11.069	0.100
763.600	-12.602	0.100
763.700	-5.012	0.100
763.800	-8.438	0.100
763.900	-9.815	0.100
764.000	-16.306	0.100
764.100	2.389	0.100
764.200	-8.233	0.100
764.300	-11.622	0.100
764.400	-5.249	0.100
764.500	-17.479	0.100
764.600	-1.571	0.100
764.700	-6.793	0.100
764.800	2.854	0.100
764.900	-7.670	0.100
765.000	-8.881	0.100
765.100	-8.177	0.100
765.200	-13.906	0.100
765.300	-9.669	0.100
765.400	-4.482	0.100
765.500	1.130	0.100
765.600	-9.527	0.100
765.700	-0.422	0.100
765.800	-11.201	0.100
765.900	-16.290	0.100
766.000	-6.606	0.100
766.100	-10.064	0.100
766.200	-18.979	0.100
766.300	-10.541	0.100
766.400	-6.787	0.100
766.500	-9.773	0.100
766.600	-4.370	0.100
766.700	-5.980	0.100
766.800	-13.778	0.100
766.900	-7.145	0.100
767.000	-5.475	0.100
767.100	-3.462	0.100
767.200	0.876	0.100
767.300	-5.976	0.100
767.400	-7.318	0.100
767.500	-10.098	0.100
767.600	-5.369	0.100
767.700	-11.113	0.100
767.800	-9.160	0.100
767.900	-13.419	0.100
768.000	-5.115	0.100
768.100	-7.165	0.100
768.200	-8.379	0.100
768.300	-11.774	0.100
768.400	-13.044	0.100
768.500	-4.628	0.100
768.600	-3.695	0.100
768.700	-7.622	0.100
768.800	-7.220	0.100
768.900	-8.112	0.100
769.000	-12.521	0.100
769.100	-14.569	0.100
769.200	-4.615	0.100
769.300	-5.846	0.100
769.400	-4.151	0.100
769.500	-14.085	0.100
769.600	-7.930	0.100
769.700	-10.291	0.100
769.800	-8.994	0.100
769.900	-3.858	0.100
770.000	-9.888	0.100
770.100	-5.642	0.100
770.200	-10.911	0.100
770.300	-13.788	0.100
770.400	-5.307	0.100
770.500	-16.878	0.100
770.600	-12.189	0.100
770.700	-7.373	0.100
770.800	-1.781	0.100
770.900	-6.088	0.100
771.000	-10.284	0.100
771.100	-8.455	0.100
771.200	-1.702	0.100
771.300	-13.189	0.100
771.400	-13.689	0.100
771.500	-11.217	0.100
771.600	-0.462	0.100
771.700	-10.517	0.100
771.800	-3.404	0.100
771.900	-12.192	0.100
772.000	-12.065	0.100
772.100	-7.900	0.100
772.200	-1.982	0.100
772.300	-9.667	0.100
772.400	-9.293	0.100
772.500	-8.680	0.100
772.600	-13.201	0.100
772.700	-13.886	0.100
772.800	-9.068	0.100
772.900	-16.730	0.100
773.000	-7.510	0.100
773.100	-7.184	0.100
773.200	-7.490	0.100
773.300	-10.902	0.100
773.400	-12.059	0.100
773.500	-2.184	0.100
773.600	-7.445	0.100
773.700	-19.348	0.100
773.800	-10.454	0.100
773.900	-7.120	0.100
774.000	-13.673	0.100
774.100	-21.456	0.100
774.200	-5.784	0.100
774.300	-11.339	0.100
774.400	-6.357	0.100
774.500	-4.725	0.100
774.600	5.689	0.100
774.700	-3.378	0.100
774.800	-13.360	0.100
774.900	-11.389	0.100
775.000	-12.703	0.100
775.100	-12.012	0.100
775.200	-12.301	0.100
775.300	-17.382	0.100
775.400	-6.306	0.100
775.500	-4.619	0.100
775.600	-3.759	0.100
775.700	-7.535	0.100
775.800	-13.737	0.100
775.900	-16.061	0.100
776.000	-7.069	0.100
776.100	-15.626	0.100
776.200	-4.757	0.100
776.300	-9.090	0.100
776.400	-4.429	0.100
776.500	-16.982	0.100
776.600	-10.040	0.100
776.700	-2.318	0.100
776.800	-7.230	0.100
776.900	-3.945	0.100
777.000	-13.063	0.100
777.100	-5.563	0.100
777.200	-5.617	0.100
777.300	-15.471	0.100
777.400	-17.591	0.100
777.500	-5.750	0.100
777.600	-9.761	0.100
777.700	-12.875	0.100
777.800	-11.709	0.100
777.900	-6.046	0.100
778.000	-7.470	0.100
778.100	-9.040	0.100
778.200	-8.456	0.100
778.300	-8.832	0.100
778.400	1.195	0.100
778.500	-15.474	0.100
778.600	-11.117	0.100
778.700	-11.185	0.100
778.800	-11.063	0.100
778.900	-13.298	0.100
779.000	-1.978	0.100
779.100	-8.374	0.100
779.200	-10.255	0.100
779.300	-15.939	0.100
779.400	-10.357	0.100
779.500	-14.427	0.100
779.600	-2.963	0.100
779.700	-11.232	0.100
779.800	-8.926	0.100
779.900	-20.242	0.100
780.000	-4.312	0.100
780.100	-6.801	0.100
780.200	0.439	0.100
780.300	-12.455	0.100
780.400	-10.937	0.100
780.500	-3.779	0.100
780.600	-5.450	0.100
780.700	-0.641	0.100
780.800	-1.934	0.100
780.900	-10.101	0.100
781.000	-10.086	0.100
781.100	2.427	0.100
781.200	-9.159	0.100
781.300	-2.253	0.100
781.400	-3.632	0.100
781.500	-8.390	0.100
781.600	-5.570	0.100
781.700	-0.016	0.100
781.800	-6.479	0.100
781.900	-4.784	0.100
782.000	2.974	0.100
782.100	-14.199	0.100
782.200	3.042	0.100
782.300	-5.513	0.100
782.400	-3.187	0.100
782.500	4.931	0.100
782.600	-8.752	0.100
782.700	1.863	0.100
782.800	-2.219	0.100
782.900	2.340	0.100
783.000	1.318	0.100
783.100	-8.437	0.100
783.200	-3.716	0.100
783.300	-5.933	0.100
783.400	6.573	0.100
783.500	-3.548	0.100
783.600	-8.021	0.100
783.700	2.874	0.100
783.800	-6.476	0.100
783.900	-6.539	0.100
784.000	0.527	0.100
784.100	-1.018	0.100
784.200	-3.669	0.100
784.300	6.266	0.100
784.400	-2.409	0.100
784.500	1.650	0.100
784.600	5.497	0.100
784.700	-3.196	0.100
784.800	-3.256	0.100
784.900	0.795	0.100
785.000	-9.685	0.100
785.100	-3.143	0.100
785.200	4.443	0.100
785.300	-3.721	0.100
785.400	-5.187	0.100
785.500	-5.069	0.100
785.600	-3.187	0.100
785.700	-5.759	0.100
785.800	4.523	0.100
785.900	-2.439	0.100
786.000	0.194	0.100
786.100	2.683	0.100
786.200	4.182	0.100
786.300	6.614	0.100
786.400	1.898	0.100
786.500	-2.520	0.100
786.600	-5.259	0.100
786.700	-3.048	0.100
786.800	0.255	0.100
786.900	1.393	0.100
787.000	-0.977	0.100
787.100	-0.010	0.100
787.200	-2.195	0.100
787.300	-6.277	0.100
787.400	1.369	0.100
787.500	-0.391	0.100
787.600	-4.499	0.100
787.700	-7.928	0.100
787.800	3.539	0.100
787.900	-5.054	0.100
788.000	5.780	0.100
788.100	-0.267	0.100
788.200	4.299	0.100
788.300	-8.719	0.100
788.400	0.143	0.100
788.500	-3.009	0.100
788.600	-14.756	0.100
788.700	-2.733	0.100
788.800	3.960	0.100
788.900	8.309	0.100
789.000	6.867	0.100
789.100	-6.220	0.100
789.200	1.107	0.100
789.300	-0.533	0.100
789.400	8.750	0.100
789.500	4.926	0.100
789.600	2.601	0.100
789.700	-6.199	0.100
789.800	-1.817	0.100
789.900	-2.670	0.100
790.000	5.248	0.100
790.100	4.425	0.100
790.200	8.457	0.100
790.300	1.002	0.100
790.400	3.726	0.100
790.500	-0.286	0.100
790.600	0.301	0.100
790.700	-2.692	0.100
790.800	-0.860	0.100
790.900	-0.109	0.100
791.000	0.028	0.100
791.100	2.571	0.100
791.200	5.963	0.100
791.300	5.468	0.100
791.400	-3.993	0.100
791.500	2.827	0.100
791.600	-2.189	0.100
791.700	3.174	0.100
791.800	3.094	0.100
791.900	4.693	0.100
792.000	2.983	0.100
792.100	-1.892	0.100
792.200	-4.703	0.100
792.300	9.032	0.100
792.400	5.017	0.100
792.500	9.605	0.100
792.600	6.634	0.100
792.700	6.560	0.100
792.800	1.362	0.100
792.900	5.554	0.100
793.000	0.517	0.100
793.100	3.116	0.100
793.200	4.233	0.100
793.300	3.907	0.100
793.400	6.980	0.100
793.500	5.287	0.100
793.600	2.642	0.100
793.700	6.626	0.100
793.800	3.768	0.100
793.900	0.033	0.100
794.000	3.556	0.100
794.100	5.292	0.100
794.200	5.845	0.100
794.300	7.193	0.100
794.400	4.321	0.100
794.500	-11.142	0.100
794.600	7.435	0.100
794.700	2.715	0.100
794.800	1.152	0.100
794.900	5.893	0.100
795.000	-0.394	0.100
795.100	5.487	0.100
795.200	3.248	0.100
795.300	0.557	0.100
795.400	1.859	0.100
795.500	0.572	0.100
795.600	9.100	0.100
795.700	2.107	0.100
795.800	4.046	0.100
795.900	-3.650	0.100
796.000	7.093	0.100
796.100	-0.932	0.100
796.200	-2.258	0.100
796.300	5.586	0.100
796.400	5.153	0.100
796.500	6.980	0.100
796.600	-0.857	0.100
796.700	0.951	0.100
796.800	5.299	0.100
796.900	14.946	0.100
797.000	0.967	0.100
797.100	1.763	0.100
797.200	5.813	0.100
797.300	5.752	0.100
797.400	3.845	0.100
797.500	7.803	0.100
797.600	3.169	0.100
797.700	1.929	0.100
797.800	4.374	0.100
797.900	-1.792	0.100
798.000	8.428	0.100
798.100	2.447	0.100
798.200	0.214	0.100
798.300	6.501	0.100
798.400	5.182	0.100
798.500	-2.516	0.100
798.600	9.007	0.100
798.700	-1.063	0.100
798.800	8.842	0.100
798.900	5.579	0.100
799.000	15.021	0.100
799.100	4.112	0.100
799.200	14.742	0.100
799.300	0.987	0.100
799.400	9.707	0.100
799.500	0.560	0.100
799.600	6.302	0.100
799.700	-0.162	0.100
799.800	1.901	0.100
799.900	13.942	0.100
800.000	-0.178	0.100
