time /s	I /nA	E /V
0.100	-20.903	0.100
0.200	-5.357	0.100
0.300	-5.455	0.100
0.400	-14.632	0.100
0.500	-17.670	0.100
0.600	-18.412	0.100
0.700	-18.475	0.100
0.800	-8.816	0.100
0.900	-26.061	0.100
1.000	-7.167	0.100
1.100	-14.271	0.100
1.200	-14.766	0.100
1.300	-16.759	0.100
1.400	-15.222	0.100
1.500	-23.632	0.100
1.600	-18.899	0.100
1.700	-21.019	0.100
1.800	-15.442	0.100
1.900	-19.544	0.100
2.000	-12.210	0.100
2.100	-7.457	0.100
2.200	-12.713	0.100
2.300	-15.707	0.100
2.400	-7.840	0.100
2.500	2.613	0.100
2.600	-2.749	0.100
2.700	-12.338	0.100
2.800	-11.269	0.100
2.900	-17.197	0.100
3.000	-11.709	0.100
3.100	-29.359	0.100
3.200	-25.437	0.100
3.300	-15.663	0.100
3.400	-37.730	0.100
3.500	-14.216	0.100
3.600	-16.344	0.100
3.700	-5.669	0.100
3.800	-19.919	0.100
3.900	-19.977	0.100
4.000	0.922	0.100
4.100	-21.329	0.100
4.200	-17.201	0.100
4.300	-13.078	0.100
4.400	-11.188	0.100
4.500	-7.723	0.100
4.600	-15.737	0.100
4.700	-12.759	0.100
4.800	-17.843	0.100
4.900	-16.779	0.100
5.000	-16.260	0.100
5.100	-23.473	0.100
5.200	-21.276	0.100
5.300	-10.009	0.100
5.400	-6.107	0.100
5.500	-12.498	0.100
5.600	-15.173	0.100
5.700	-15.593	0.100
5.800	-11.026	0.100
5.900	-12.410	0.100
6.000	-6.948	0.100
6.100	-4.922	0.100
6.200	-7.293	0.100
6.300	-9.906	0.100
6.400	-14.975	0.100
6.500	-15.891	0.100
6.600	-10.678	0.100
6.700	-20.589	0.100
6.800	-6.440	0.100
6.900	-12.653	0.100
7.000	-18.823	0.100
7.100	-12.265	0.100
7.200	-9.548	0.100
7.300	-11.498	0.100
7.400	-11.419	0.100
7.500	-24.663	0.100
7.600	-21.510	0.100
7.700	-8.275	0.100
7.800	-1.414	0.100
7.900	-15.083	0.100
8.000	-12.555	0.100
8.100	-8.847	0.100
8.200	-14.116	0.100
8.300	-12.323	0.100
8.400	-20.106	0.100
8.500	-14.135	0.100
8.600	-18.339	0.100
8.700	-9.150	0.100
8.800	-8.704	0.100
8.900	-20.673	0.100
9.000	-18.352	0.100
9.100	-18.908	0.100
9.200	-19.312	0.100
9.300	-12.757	0.100
9.400	-6.745	0.100
9.500	-31.299	0.100
9.600	-25.206	0.100
9.700	1.722	0.100
9.800	-6.288	0.100
9.900	-15.768	0.100
10.000	-10.102	0.100
10.100	8.265	0.100
10.200	-14.485	0.100
10.300	-16.865	0.100
10.400	-9.146	0.100
10.500	-18.252	0.100
10.600	-16.713	0.100
10.700	-17.775	0.100
10.800	-15.844	0.100
10.900	-14.008	0.100
11.000	-15.437	0.100
11.100	-4.816	0.100
11.200	-18.534	0.100
11.300	0.619	0.100
11.400	-18.047	0.100
11.500	-16.478	0.100
11.600	-14.666	0.100
11.700	-12.313	0.100
11.800	-16.062	0.100
11.900	-2.630	0.100
12.000	-1.171	0.100
12.100	-20.125	0.100
12.200	-23.297	0.100
12.300	-5.356	0.100
12.400	-11.134	0.100
12.500	-11.676	0.100
12.600	-15.191	0.100
12.700	-9.658	0.100
12.800	-8.993	0.100
12.900	-14.120	0.100
13.000	-22.883	0.100
13.100	-9.868	0.100
13.200	-13.649	0.100
13.300	-27.576	0.100
13.400	-19.388	0.100
13.500	-9.862	0.100
13.600	-21.292	0.100
13.700	-5.687	0.100
13.800	-1.655	0.100
13.900	-5.426	0.100
14.000	-21.277	0.100
14.100	-4.325	0.100
14.200	-12.171	0.100
14.300	-15.222	0.100
14.400	-18.113	0.100
14.500	-2.401	0.100
14.600	-13.159	0.100
14.700	-26.459	0.100
14.800	-13.905	0.100
14.900	-18.893	0.100
15.000	-10.949	0.100
15.100	-13.874	0.100
15.200	-7.340	0.100
15.300	-13.048	0.100
15.400	-5.232	0.100
15.500	-13.453	0.100
15.600	-15.002	0.100
15.700	0.313	0.100
15.800	-11.246	0.100
15.900	-0.898	0.100
16.000	-20.022	0.100
16.100	-15.895	0.100
16.200	-8.128	0.100
16.300	-12.400	0.100
16.400	-9.528	0.100
16.500	-9.054	0.100
16.600	-12.230	0.100
16.700	-5.943	0.100
16.800	-28.089	0.100
16.900	-10.215	0.100
17.000	-9.154	0.100
17.100	-23.438	0.100
17.200	-23.314	0.100
17.300	-2.669	0.100
17.400	-22.484	0.100
17.500	-15.460	0.100
17.600	-10.431	0.100
17.700	-10.906	0.100
17.800	-11.968	0.100
17.900	-4.509	0.100
18.000	-14.047	0.100
18.100	-15.132	0.100
18.200	-13.925	0.100
18.300	-20.280	0.100
18.400	-11.422	0.100
18.500	-2.740	0.100
18.600	-5.174	0.100
18.700	-19.098	0.100
18.800	-9.510	0.100
18.900	-11.294	0.100
19.000	-6.125	0.100
19.100	-5.973	0.100
19.200	-4.004	0.100
19.300	-23.453	0.100
19.400	-11.644	0.100
19.500	-7.534	0.100
19.600	-17.369	0.100
19.700	-14.689	0.100
19.800	-13.753	0.100
19.900	0.058	0.100
20.000	-7.358	0.100
20.100	-15.100	0.100
20.200	-21.917	0.100
20.300	-20.366	0.100
20.400	-18.148	0.100
20.500	-9.725	0.100
20.600	-3.262	0.100
20.700	-13.039	0.100
20.800	0.612	0.100
20.900	-6.572	0.100
21.000	-9.624	0.100
21.100	-27.553	0.100
21.200	-7.965	0.100
21.300	-2.343	0.100
21.400	-12.568	0.100
21.500	-10.849	0.100
21.600	-2.200	0.100
21.700	-1.967	0.100
21.800	-21.024	0.100
21.900	-25.450	0.100
22.000	-19.387	0.100
22.100	-6.632	0.100
22.200	-9.597	0.100
22.300	-15.180	0.100
22.400	-17.233	0.100
22.500	-18.127	0.100
22.600	-8.312	0.100
22.700	-1.767	0.100
22.800	-10.299	0.100
22.900	-9.623	0.100
23.000	-12.141	0.100
23.100	-13.137	0.100
23.200	-7.111	0.100
23.300	-17.323	0.100
23.400	-13.304	0.100
23.500	-3.381	0.100
23.600	-12.270	0.100
23.700	-10.286	0.100
23.800	-23.765	0.100
23.900	-7.738	0.100
24.000	-4.259	0.100
24.100	-9.409	0.100
24.200	-11.454	0.100
24.300	-24.383	0.100
24.400	-22.700	0.100
24.500	-1.843	0.100
24.600	-15.204	0.100
24.700	-4.842	0.100
24.800	-11.923	0.100
24.900	-17.183	0.100
25.000	-12.148	0.100
25.100	-17.642	0.100
25.200	-31.440	0.100
25.300	-15.227	0.100
25.400	-23.390	0.100
25.500	-6.027	0.100
25.600	-0.565	0.100
25.700	-12.135	0.100
25.800	-6.500	0.100
25.900	-4.645	0.100
26.000	-7.964	0.100
26.100	-15.382	0.100
26.200	-16.203	0.100
26.300	-7.124	0.100
26.400	-4.953	0.100
26.500	-14.639	0.100
26.600	-1.792	0.100
26.700	-27.600	0.100
26.800	-16.614	0.100
26.900	-6.705	0.100
27.000	-1.675	0.100
27.100	-12.305	0.100
27.200	-30.801	0.100
27.300	-7.517	0.100
27.400	-9.407	0.100
27.500	-22.638	0.100
27.600	-1.908	0.100
27.700	-15.106	0.100
27.800	-8.271	0.100
27.900	-4.579	0.100
28.000	-5.302	0.100
28.100	-10.756	0.100
28.200	-13.156	0.100
28.300	-17.299	0.100
28.400	-12.366	0.100
28.500	-13.747	0.100
28.600	-10.364	0.100
28.700	-28.014	0.100
28.800	-10.949	0.100
28.900	-4.652	0.100
29.000	-12.111	0.100
29.100	-20.070	0.100
29.200	-12.643	0.100
29.300	-16.111	0.100
29.400	0.516	0.100
29.500	-18.015	0.100
29.600	-9.454	0.100
29.700	-12.805	0.100
29.800	-9.216	0.100
29.900	-3.324	0.100
30.000	-11.499	0.100
30.100	-5.512	0.100
30.200	8.109	0.100
30.300	-5.843	0.100
30.400	-7.049	0.100
30.500	4.172	0.100
30.600	0.260	0.100
30.700	-6.833	0.100
30.800	-5.418	0.100
30.900	-13.422	0.100
31.000	-2.365	0.100
31.100	5.647	0.100
31.200	-7.198	0.100
31.300	-3.261	0.100
31.400	6.533	0.100
31.500	-10.191	0.100
31.600	11.639	0.100
31.700	-16.393	0.100
31.800	3.696	0.100
31.900	4.804	0.100
32.000	-2.881	0.100
32.100	5.817	0.100
32.200	8.280	0.100
32.300	11.376	0.100
32.400	2.520	0.100
32.500	-1.659	0.100
32.600	7.529	0.100
32.700	3.008	0.100
32.800	-9.120	0.100
32.900	-15.595	0.100
33.000	0.478	0.100
33.100	8.769	0.100
33.200	7.754	0.100
33.300	5.333	0.100
33.400	-2.518	0.100
33.500	6.073	0.100
33.600	-0.545	0.100
33.700	-11.663	0.100
33.800	13.628	0.100
33.900	15.382	0.100
34.000	1.583	0.100
34.100	9.247	0.100
34.200	-4.250	0.100
34.300	-4.083	0.100
34.400	3.591	0.100
34.500	-6.842	0.100
34.600	7.447	0.100
34.700	-7.789	0.100
34.800	3.082	0.100
34.900	6.935	0.100
35.000	10.401	0.100
35.100	2.981	0.100
35.200	4.126	0.100
35.300	5.494	0.100
35.400	4.857	0.100
35.500	16.497	0.100
35.600	9.785	0.100
35.700	2.057	0.100
35.800	-3.494	0.100
35.900	-0.480	0.100
36.000	5.303	0.100
36.100	0.770	0.100
36.200	-10.664	0.100
36.300	-3.137	0.100
36.400	-9.751	0.100
36.500	-1.474	0.100
36.600	12.628	0.100
36.700	6.967	0.100
36.800	-6.554	0.100
36.900	6.670	0.100
37.000	-0.832	0.100
37.100	4.683	0.100
37.200	8.068	0.100
37.300	-1.754	0.100
37.400	2.829	0.100
37.500	11.487	0.100
37.600	19.489	0.100
37.700	5.597	0.100
37.800	2.408	0.100
37.900	10.885	0.100
38.000	-5.710	0.100
38.100	20.229	0.100
38.200	18.545	0.100
38.300	0.621	0.100
38.400	-5.115	0.100
38.500	2.074	0.100
38.600	6.966	0.100
38.700	4.157	0.100
38.800	-2.094	0.100
38.900	9.903	0.100
39.000	11.618	0.100
39.100	9.397	0.100
39.200	11.671	0.100
39.300	0.010	0.100
39.400	5.911	0.100
39.500	-2.584	0.100
39.600	17.430	0.100
39.700	9.869	0.100
39.800	7.045	0.100
39.900	2.111	0.100
40.000	-0.048	0.100
40.100	3.640	0.100
40.200	18.373	0.100
40.300	11.679	0.100
40.400	16.431	0.100
40.500	8.046	0.100
40.600	-5.328	0.100
40.700	-10.331	0.100
40.800	12.613	0.100
40.900	0.468	0.100
41.000	22.290	0.100
41.100	12.482	0.100
41.200	-2.857	0.100
41.300	3.114	0.100
41.400	-0.216	0.100
41.500	-7.301	0.100
41.600	14.041	0.100
41.700	8.389	0.100
41.800	-3.069	0.100
41.900	6.869	0.100
42.000	-0.374	0.100
42.100	-5.397	0.100
42.200	-1.397	0.100
42.300	4.095	0.100
42.400	5.975	0.100
42.500	25.055	0.100
42.600	5.117	0.100
42.700	8.583	0.100
42.800	2.123	0.100
42.900	-3.669	0.100
43.000	1.634	0.100
43.100	-4.536	0.100
43.200	27.928	0.100
43.300	10.080	0.100
43.400	18.501	0.100
43.500	8.328	0.100
43.600	15.767	0.100
43.700	4.360	0.100
43.800	-0.773	0.100
43.900	7.089	0.100
44.000	0.305	0.100
44.100	6.642	0.100
44.200	-0.787	0.100
44.300	12.187	0.100
44.400	1.630	0.100
44.500	4.708	0.100
44.600	7.992	0.100
44.700	2.831	0.100
44.800	-7.011	0.100
44.900	7.726	0.100
45.000	-0.757	0.100
45.100	-4.136	0.100
45.200	7.613	0.100
45.300	15.631	0.100
45.400	17.201	0.100
45.500	7.151	0.100
45.600	0.759	0.100
45.700	-2.364	0.100
45.800	3.046	0.100
45.900	10.920	0.100
46.000	17.912	0.100
46.100	-7.149	0.100
46.200	4.295	0.100
46.300	20.252	0.100
46.400	1.590	0.100
46.500	13.685	0.100
46.600	4.189	0.100
46.700	-0.666	0.100
46.800	-7.266	0.100
46.900	13.876	0.100
47.000	3.602	0.100
47.100	10.893	0.100
47.200	1.749	0.100
47.300	0.959	0.100
47.400	2.212	0.100
47.500	1.395	0.100
47.600	11.438	0.100
47.700	-3.603	0.100
47.800	-3.244	0.100
47.900	15.389	0.100
48.000	3.925	0.100
48.100	3.669	0.100
48.200	7.591	0.100
48.300	-0.190	0.100
48.400	1.487	0.100
48.500	1.502	0.100
48.600	7.717	0.100
48.700	3.974	0.100
48.800	-8.129	0.100
48.900	9.864	0.100
49.000	19.183	0.100
49.100	2.176	0.100
49.200	3.461	0.100
49.300	11.749	0.100
49.400	12.846	0.100
49.500	8.714	0.100
49.600	5.883	0.100
49.700	-1.648	0.100
49.800	7.315	0.100
49.900	6.454	0.100
50.000	-7.775	0.100
50.100	15.963	0.100
50.200	13.470	0.100
50.300	9.803	0.100
50.400	8.332	0.100
50.500	1.099	0.100
50.600	-2.381	0.100
50.700	6.916	0.100
50.800	9.233	0.100
50.900	9.954	0.100
51.000	9.146	0.100
51.100	-2.529	0.100
51.200	-0.559	0.100
51.300	14.793	0.100
51.400	0.898	0.100
51.500	1.875	0.100
51.600	7.022	0.100
51.700	6.865	0.100
51.800	10.902	0.100
51.900	3.859	0.100
52.000	1.166	0.100
52.100	-3.671	0.100
52.200	-8.328	0.100
52.300	3.361	0.100
52.400	23.728	0.100
52.500	1.263	0.100
52.600	4.077	0.100
52.700	13.093	0.100
52.800	-2.433	0.100
52.900	-2.659	0.100
53.000	6.106	0.100
53.100	6.448	0.100
53.200	15.712	0.100
53.300	0.784	0.100
53.400	7.618	0.100
53.500	3.558	0.100
53.600	6.731	0.100
53.700	-3.439	0.100
53.800	11.845	0.100
53.900	5.602	0.100
54.000	12.670	0.100
54.100	7.710	0.100
54.200	-4.479	0.100
54.300	4.894	0.100
54.400	-1.213	0.100
54.500	23.808	0.100
54.600	10.970	0.100
54.700	2.456	0.100
54.800	5.433	0.100
54.900	5.577	0.100
55.000	2.469	0.100
55.100	3.251	0.100
55.200	8.285	0.100
55.300	-7.295	0.100
55.400	-17.615	0.100
55.500	-2.436	0.100
55.600	-3.304	0.100
55.700	5.502	0.100
55.800	3.184	0.100
55.900	15.525	0.100
56.000	9.317	0.100
56.100	-3.685	0.100
56.200	2.701	0.100
56.300	-5.675	0.100
56.400	11.480	0.100
56.500	1.200	0.100
56.600	4.482	0.100
56.700	6.911	0.100
56.800	2.226	0.100
56.900	0.923	0.100
57.000	5.533	0.100
57.100	6.940	0.100
57.200	5.636	0.100
57.300	14.068	0.100
57.400	14.612	0.100
57.500	-8.737	0.100
57.600	3.551	0.100
57.700	-0.537	0.100
57.800	4.375	0.100
57.900	19.402	0.100
58.000	15.934	0.100
58.100	6.618	0.100
58.200	-11.007	0.100
58.300	1.438	0.100
58.400	-8.379	0.100
58.500	10.412	0.100
58.600	6.468	0.100
58.700	11.195	0.100
58.800	0.306	0.100
58.900	7.274	0.100
59.000	9.341	0.100
59.100	25.161	0.100
59.200	10.160	0.100
59.300	4.116	0.100
59.400	19.509	0.100
59.500	8.045	0.100
59.600	0.308	0.100
59.700	14.253	0.100
59.800	2.182	0.100
59.900	7.792	0.100
60.000	2.226	0.100
60.100	6.233	0.100
60.200	-9.334	0.100
60.300	14.312	0.100
60.400	11.904	0.100
60.500	10.917	0.100
60.600	8.048	0.100
60.700	11.633	0.100
60.800	-0.348	0.100
60.900	9.422	0.100
61.000	6.356	0.100
61.100	11.183	0.100
61.200	0.517	0.100
61.300	2.718	0.100
61.400	5.611	0.100
61.500	-0.522	0.100
61.600	-1.432	0.100
61.700	3.648	0.100
61.800	11.964	0.100
61.900	11.746	0.100
62.000	5.399	0.100
62.100	8.792	0.100
62.200	5.306	0.100
62.300	-2.556	0.100
62.400	8.280	0.100
62.500	5.718	0.100
62.600	4.164	0.100
62.700	14.536	0.100
62.800	-2.066	0.100
62.900	10.484	0.100
63.000	2.900	0.100
63.100	10.138	0.100
63.200	2.860	0.100
63.300	9.306	0.100
63.400	0.950	0.100
63.500	16.929	0.100
63.600	-7.840	0.100
63.700	7.421	0.100
63.800	11.398	0.100
63.900	10.188	0.100
64.000	1.626	0.100
64.100	6.567	0.100
64.200	14.201	0.100
64.300	12.896	0.100
64.400	21.975	0.100
64.500	2.583	0.100
64.600	5.074	0.100
64.700	19.967	0.100
64.800	4.154	0.100
64.900	7.211	0.100
65.000	11.141	0.100
65.100	7.466	0.100
65.200	-1.115	0.100
65.300	7.720	0.100
65.400	16.337	0.100
65.500	4.952	0.100
65.600	-7.800	0.100
65.700	0.675	0.100
65.800	17.606	0.100
65.900	10.676	0.100
66.000	13.158	0.100
66.100	-3.149	0.100
66.200	3.353	0.100
66.300	15.066	0.100
66.400	16.440	0.100
66.500	-5.966	0.100
66.600	15.156	0.100
66.700	10.422	0.100
66.800	3.928	0.100
66.900	11.451	0.100
67.000	16.842	0.100
67.100	14.525	0.100
67.200	6.413	0.100
67.300	9.799	0.100
67.400	4.829	0.100
67.500	-1.019	0.100
67.600	0.922	0.100
67.700	-0.084	0.100
67.800	13.460	0.100
67.900	3.762	0.100
68.000	13.255	0.100
68.100	7.658	0.100
68.200	12.679	0.100
68.300	15.785	0.100
68.400	3.522	0.100
68.500	8.138	0.100
68.600	10.810	0.100
68.700	15.869	0.100
68.800	8.929	0.100
68.900	-5.021	0.100
69.000	9.655	0.100
69.100	12.206	0.100
69.200	2.339	0.100
69.300	13.412	0.100
69.400	16.082	0.100
69.500	16.110	0.100
69.600	1.000	0.100
69.700	8.362	0.100
69.800	1.662	0.100
69.900	3.952	0.100
70.000	6.650	0.100
70.100	15.381	0.100
70.200	7.197	0.100
70.300	3.762	0.100
70.400	16.799	0.100
70.500	10.597	0.100
70.600	5.203	0.100
70.700	-9.667	0.100
70.800	15.128	0.100
70.900	16.726	0.100
71.000	6.406	0.100
71.100	21.461	0.100
71.200	7.617	0.100
71.300	0.591	0.100
71.400	17.108	0.100
71.500	4.004	0.100
71.600	24.571	0.100
71.700	10.108	0.100
71.800	17.609	0.100
71.900	14.331	0.100
72.000	-1.359	0.100
72.100	0.080	0.100
72.200	5.764	0.100
72.300	8.937	0.100
72.400	7.242	0.100
72.500	9.360	0.100
72.600	8.131	0.100
72.700	14.164	0.100
72.800	13.977	0.100
72.900	6.169	0.100
73.000	22.633	0.100
73.100	6.244	0.100
73.200	22.558	0.100
73.300	16.550	0.100
73.400	12.295	0.100
73.500	12.769	0.100
73.600	15.759	0.100
73.700	-7.847	0.100
73.800	0.427	0.100
73.900	0.907	0.100
74.000	21.101	0.100
74.100	7.037	0.100
74.200	8.596	0.100
74.300	-7.022	0.100
74.400	16.351	0.100
74.500	17.382	0.100
74.600	14.848	0.100
74.700	8.233	0.100
74.800	8.974	0.100
74.900	-2.530	0.100
75.000	14.427	0.100
75.100	5.084	0.100
75.200	5.216	0.100
75.300	0.373	0.100
75.400	0.857	0.100
75.500	6.701	0.100
75.600	23.412	0.100
75.700	-5.888	0.100
75.800	3.070	0.100
75.900	0.481	0.100
76.000	-6.725	0.100
76.100	24.958	0.100
76.200	14.917	0.100
76.300	0.822	0.100
76.400	16.389	0.100
76.500	7.399	0.100
76.600	9.664	0.100
76.700	9.867	0.100
76.800	12.548	0.100
76.900	27.676	0.100
77.000	11.151	0.100
77.100	-2.940	0.100
77.200	-2.626	0.100
77.300	10.579	0.100
77.400	13.090	0.100
77.500	9.921	0.100
77.600	1.360	0.100
77.700	1.522	0.100
77.800	22.212	0.100
77.900	12.349	0.100
78.000	11.540	0.100
78.100	11.965	0.100
78.200	4.355	0.100
78.300	14.608	0.100
78.400	17.718	0.100
78.500	7.076	0.100
78.600	9.259	0.100
78.700	2.594	0.100
78.800	10.292	0.100
78.900	14.320	0.100
79.000	-10.520	0.100
79.100	6.111	0.100
79.200	19.025	0.100
79.300	7.971	0.100
79.400	10.594	0.100
79.500	18.013	0.100
79.600	6.855	0.100
79.700	17.671	0.100
79.800	4.072	0.100
79.900	6.174	0.100
80.000	2.667	0.100
80.100	-3.141	0.100
80.200	13.721	0.100
80.300	5.287	0.100
80.400	10.858	0.100
80.500	21.131	0.100
80.600	5.550	0.100
80.700	16.046	0.100
80.800	4.712	0.100
80.900	16.161	0.100
81.000	2.630	0.100
81.100	-1.626	0.100
81.200	6.784	0.100
81.300	11.725	0.100
81.400	7.407	0.100
81.500	10.107	0.100
81.600	-4.070	0.100
81.700	20.111	0.100
81.800	8.181	0.100
81.900	8.425	0.100
82.000	11.860	0.100
82.100	4.360	0.100
82.200	20.266	0.100
82.300	18.019	0.100
82.400	18.009	0.100
82.500	8.430	0.100
82.600	2.567	0.100
82.700	-6.379	0.100
82.800	15.522	0.100
82.900	8.319	0.100
83.000	13.355	0.100
83.100	6.772	0.100
83.200	5.242	0.100
83.300	-5.449	0.100
83.400	12.466	0.100
83.500	16.096	0.100
83.600	11.875	0.100
83.700	9.121	0.100
83.800	-0.309	0.100
83.900	19.499	0.100
84.000	17.139	0.100
84.100	18.813	0.100
84.200	9.975	0.100
84.300	17.922	0.100
84.400	12.941	0.100
84.500	4.550	0.100
84.600	3.429	0.100
84.700	18.832	0.100
84.800	6.118	0.100
84.900	5.406	0.100
85.000	0.669	0.100
85.100	12.478	0.100
85.200	12.689	0.100
85.300	17.972	0.100
85.400	19.175	0.100
85.500	11.959	0.100
85.600	12.363	0.100
85.700	4.160	0.100
85.800	21.149	0.100
85.900	8.912	0.100
86.000	12.892	0.100
86.100	0.671	0.100
86.200	23.347	0.100
86.300	14.641	0.100
86.400	11.329	0.100
86.500	6.853	0.100
86.600	-6.059	0.100
86.700	5.564	0.100
86.800	-6.709	0.100
86.900	10.867	0.100
87.000	9.723	0.100
87.100	19.991	0.100
87.200	10.311	0.100
87.300	7.377	0.100
87.400	17.295	0.100
87.500	4.492	0.100
87.600	1.400	0.100
87.700	23.362	0.100
87.800	7.674	0.100
87.900	1.887	0.100
88.000	13.985	0.100
88.100	-1.377	0.100
88.200	3.336	0.100
88.300	9.711	0.100
88.400	12.936	0.100
88.500	18.041	0.100
88.600	4.643	0.100
88.700	14.508	0.100
88.800	11.967	0.100
88.900	3.036	0.100
89.000	7.532	0.100
89.100	4.917	0.100
89.200	7.329	0.100
89.300	-11.046	0.100
89.400	12.071	0.100
89.500	16.235	0.100
89.600	0.240	0.100
89.700	8.802	0.100
89.800	-0.290	0.100
89.900	1.378	0.100
90.000	-2.579	0.100
90.100	13.026	0.100
90.200	-8.990	0.100
90.300	7.400	0.100
90.400	13.583	0.100
90.500	11.033	0.100
90.600	-1.243	0.100
90.700	-5.399	0.100
90.800	0.195	0.100
90.900	-4.020	0.100
91.000	9.980	0.100
91.100	-12.970	0.100
91.200	-14.961	0.100
91.300	2.340	0.100
91.400	-11.906	0.100
91.500	-8.746	0.100
91.600	-4.256	0.100
91.700	-8.645	0.100
91.800	4.528	0.100
91.900	-3.493	0.100
92.000	-18.180	0.100
92.100	-14.707	0.100
92.200	-21.155	0.100
92.300	-15.479	0.100
92.400	-1.827	0.100
92.500	-20.784	0.100
92.600	-15.119	0.100
92.700	-10.804	0.100
92.800	-21.305	0.100
92.900	-8.164	0.100
93.000	-20.857	0.100
93.100	-12.824	0.100
93.200	-16.361	0.100
93.300	-14.874	0.100
93.400	-18.190	0.100
93.500	-11.965	0.100
93.600	-7.133	0.100
93.700	-2.062	0.100
93.800	-10.872	0.100
93.900	-4.107	0.100
94.000	-22.246	0.100
94.100	-1.839	0.100
94.200	-16.125	0.100
94.300	-8.905	0.100
94.400	-17.852	0.100
94.500	-14.987	0.100
94.600	-17.325	0.100
94.700	-16.431	0.100
94.800	-2.909	0.100
94.900	-18.553	0.100
95.000	-18.034	0.100
95.100	-12.393	0.100
95.200	-1.266	0.100
95.300	-21.083	0.100
95.400	-10.757	0.100
95.500	-12.097	0.100
95.600	-16.855	0.100
95.700	-5.621	0.100
95.800	-18.900	0.100
95.900	-9.355	0.100
96.000	0.259	0.100
96.100	-15.430	0.100
96.200	-4.674	0.100
96.300	-13.187	0.100
96.400	-20.273	0.100
96.500	-3.219	0.100
96.600	-7.825	0.100
96.700	-17.929	0.100
96.800	-6.782	0.100
96.900	-8.106	0.100
97.000	4.849	0.100
97.100	-22.014	0.100
97.200	2.866	0.100
97.300	-19.324	0.100
97.400	-10.111	0.100
97.500	-3.366	0.100
97.600	-11.967	0.100
97.700	-10.037	0.100
97.800	-17.716	0.100
97.900	-9.670	0.100
98.000	-7.435	0.100
98.100	-19.415	0.100
98.200	-16.024	0.100
98.300	-14.882	0.100
98.400	-18.654	0.100
98.500	-13.479	0.100
98.600	2.466	0.100
98.700	-5.431	0.100
98.800	-8.145	0.100
98.900	1.311	0.100
99.000	-14.384	0.100
99.100	-26.510	0.100
99.200	1.849	0.100
99.300	-5.115	0.100
99.400	-32.465	0.100
99.500	-7.646	0.100
99.600	-4.470	0.100
99.700	1.100	0.100
99.800	-8.337	0.100
99.900	-7.160	0.100
100.000	-9.383	0.100
100.100	-12.345	0.100
100.200	-20.160	0.100
100.300	-13.769	0.100
100.400	-9.635	0.100
100.500	-13.492	0.100
100.600	-22.708	0.100
100.700	4.126	0.100
100.800	4.079	0.100
100.900	-4.075	0.100
101.000	-4.315	0.100
101.100	-11.959	0.100
101.200	-16.876	0.100
101.300	-9.923	0.100
101.400	-14.715	0.100
101.500	-21.270	0.100
101.600	-1.688	0.100
101.700	-23.525	0.100
101.800	-1.010	0.100
101.900	-7.811	0.100
102.000	-1.433	0.100
102.100	-1.685	0.100
102.200	-1.908	0.100
102.300	-11.058	0.100
102.400	1.741	0.100
102.500	-11.921	0.100
102.600	-1.171	0.100
102.700	-5.244	0.100
102.800	-6.885	0.100
102.900	-1.932	0.100
103.000	-3.277	0.100
103.100	-7.137	0.100
103.200	-6.698	0.100
103.300	-8.175	0.100
103.400	-3.111	0.100
103.500	-1.982	0.100
103.600	-2.760	0.100
103.700	-15.544	0.100
103.800	-1.895	0.100
103.900	-1.831	0.100
104.000	-2.484	0.100
104.100	-9.722	0.100
104.200	-7.702	0.100
104.300	-17.046	0.100
104.400	-10.409	0.100
104.500	-3.837	0.100
104.600	-6.058	0.100
104.700	-16.577	0.100
104.800	-8.426	0.100
104.900	-1.081	0.100
105.000	-3.621	0.100
105.100	-15.649	0.100
105.200	-15.798	0.100
105.300	-4.260	0.100
105.400	-10.278	0.100
105.500	-2.366	0.100
105.600	-1.951	0.100
105.700	0.347	0.100
105.800	-1.453	0.100
105.900	-4.470	0.100
106.000	-2.985	0.100
106.100	-2.363	0.100
106.200	-3.612	0.100
106.300	-17.499	0.100
106.400	-5.896	0.100
106.500	-3.297	0.100
106.600	-6.985	0.100
106.700	-3.486	0.100
106.800	-7.807	0.100
106.900	0.346	0.100
107.000	-4.455	0.100
107.100	-13.572	0.100
107.200	-2.841	0.100
107.300	1.305	0.100
107.400	-6.724	0.100
107.500	-11.402	0.100
107.600	-2.999	0.100
107.700	-7.771	0.100
107.800	-11.938	0.100
107.900	-2.621	0.100
108.000	-14.458	0.100
108.100	6.688	0.100
108.200	-9.668	0.100
108.300	4.527	0.100
108.400	-3.936	0.100
108.500	-13.205	0.100
108.600	2.156	0.100
108.700	-2.752	0.100
108.800	-13.351	0.100
108.900	-14.008	0.100
109.000	-15.480	0.100
109.100	-10.446	0.100
109.200	8.636	0.100
109.300	-15.856	0.100
109.400	-0.646	0.100
109.500	-1.060	0.100
109.600	-14.453	0.100
109.700	-2.140	0.100
109.800	-5.946	0.100
109.900	-28.803	0.100
110.000	-8.268	0.100
110.100	0.331	0.100
110.200	-2.924	0.100
110.300	-1.139	0.100
110.400	1.132	0.100
110.500	-15.512	0.100
110.600	-5.797	0.100
110.700	-7.654	0.100
110.800	-4.719	0.100
110.900	-2.427	0.100
111.000	-14.395	0.100
111.100	-6.677	0.100
111.200	-14.472	0.100
111.300	-16.147	0.100
111.400	-3.981	0.100
111.500	-1.667	0.100
111.600	-1.627	0.100
111.700	6.069	0.100
111.800	3.302	0.100
111.900	3.109	0.100
112.000	-17.244	0.100
112.100	1.545	0.100
112.200	-12.043	0.100
112.300	-16.074	0.100
112.400	-13.088	0.100
112.500	-10.280	0.100
112.600	-23.564	0.100
112.700	-24.852	0.100
112.800	-2.961	0.100
112.900	0.317	0.100
113.000	-5.804	0.100
113.100	-1.066	0.100
113.200	-16.732	0.100
113.300	-9.991	0.100
113.400	-13.190	0.100
113.500	-8.174	0.100
113.600	7.242	0.100
113.700	0.272	0.100
113.800	4.678	0.100
113.900	-1.010	0.100
114.000	0.014	0.100
114.100	-3.367	0.100
114.200	-14.398	0.100
114.300	-8.143	0.100
114.400	-9.669	0.100
114.500	11.242	0.100
114.600	-8.602	0.100
114.700	-1.962	0.100
114.800	-8.603	0.100
114.900	-21.230	0.100
115.000	-19.982	0.100
115.100	-6.566	0.100
115.200	-4.148	0.100
115.300	-0.914	0.100
115.400	1.477	0.100
115.500	-8.373	0.100
115.600	1.734	0.100
115.700	-10.614	0.100
115.800	-6.130	0.100
115.900	0.506	0.100
116.000	-13.297	0.100
116.100	-17.981	0.100
116.200	2.675	0.100
116.300	-4.223	0.100
116.400	-0.458	0.100
116.500	-8.560	0.100
116.600	-5.663	0.100
116.700	0.511	0.100
116.800	-5.438	0.100
116.900	-11.217	0.100
117.000	-22.622	0.100
117.100	-8.859	0.100
117.200	-5.513	0.100
117.300	12.316	0.100
117.400	-9.905	0.100
117.500	-8.409	0.100
117.600	-13.222	0.100
117.700	0.531	0.100
117.800	-0.752	0.100
117.900	-5.970	0.100
118.000	-4.961	0.100
118.100	-8.011	0.100
118.200	-10.294	0.100
118.300	-10.512	0.100
118.400	-12.324	0.100
118.500	-15.840	0.100
118.600	-5.124	0.100
118.700	-2.892	0.100
118.800	-1.816	0.100
118.900	4.714	0.100
119.000	3.193	0.100
119.100	1.237	0.100
119.200	-10.573	0.100
119.300	-5.952	0.100
119.400	-12.260	0.100
119.500	2.836	0.100
119.600	-15.631	0.100
119.700	-7.879	0.100
119.800	-6.980	0.100
119.900	-22.675	0.100
120.000	-17.242	0.100
120.100	-12.063	0.100
120.200	7.975	0.100
120.300	-27.341	0.100
120.400	-7.848	0.100
120.500	8.281	0.100
120.600	-16.025	0.100
120.700	-9.738	0.100
120.800	0.101	0.100
120.900	-4.789	0.100
121.000	-20.375	0.100
121.100	-5.258	0.100
121.200	0.016	0.100
121.300	-3.275	0.100
121.400	-6.402	0.100
121.500	-20.046	0.100
121.600	-20.134	0.100
121.700	-0.678	0.100
121.800	-0.170	0.100
121.900	4.070	0.100
122.000	2.596	0.100
122.100	-7.319	0.100
122.200	-4.245	0.100
122.300	-10.964	0.100
122.400	-13.014	0.100
122.500	-20.634	0.100
122.600	-9.250	0.100
122.700	6.029	0.100
122.800	-6.240	0.100
122.900	-7.726	0.100
123.000	3.278	0.100
123.100	-6.370	0.100
123.200	-9.652	0.100
123.300	-7.893	0.100
123.400	-7.734	0.100
123.500	-5.946	0.100
123.600	-8.637	0.100
123.700	-10.860	0.100
123.800	-8.998	0.100
123.900	-2.377	0.100
124.000	-1.250	0.100
124.100	-5.961	0.100
124.200	0.380	0.100
124.300	-6.490	0.100
124.400	-4.683	0.100
124.500	-7.316	0.100
124.600	-21.476	0.100
124.700	-13.142	0.100
124.800	13.885	0.100
124.900	6.384	0.100
125.000	-18.053	0.100
125.100	-19.289	0.100
125.200	-6.002	0.100
125.300	5.212	0.100
125.400	-9.058	0.100
125.500	16.687	0.100
125.600	-1.794	0.100
125.700	-2.973	0.100
125.800	-3.281	0.100
125.900	-13.059	0.100
126.000	-24.025	0.100
126.100	-3.974	0.100
126.200	-13.827	0.100
126.300	-1.909	0.100
126.400	-6.377	0.100
126.500	-9.033	0.100
126.600	1.473	0.100
126.700	-2.473	0.100
126.800	0.160	0.100
126.900	0.834	0.100
127.000	-14.245	0.100
127.100	-1.219	0.100
127.200	-12.825	0.100
127.300	-2.307	0.100
127.400	-9.074	0.100
127.500	1.691	0.100
127.600	-1.964	0.100
127.700	-1.958	0.100
127.800	-10.383	0.100
127.900	-5.631	0.100
128.000	7.723	0.100
128.100	-11.885	0.100
128.200	-14.896	0.100
128.300	-21.057	0.100
128.400	-14.161	0.100
128.500	-1.948	0.100
128.600	11.391	0.100
128.700	8.086	0.100
128.800	-9.335	0.100
128.900	-10.342	0.100
129.000	-33.851	0.100
129.100	-23.062	0.100
129.200	4.266	0.100
129.300	-2.840	0.100
129.400	-6.047	0.100
129.500	1.763	0.100
129.600	-6.490	0.100
129.700	-6.420	0.100
129.800	-2.861	0.100
129.900	-5.349	0.100
130.000	-9.712	0.100
130.100	2.877	0.100
130.200	-1.676	0.100
130.300	-1.542	0.100
130.400	-12.721	0.100
130.500	-3.749	0.100
130.600	-6.217	0.100
130.700	-11.152	0.100
130.800	-10.814	0.100
130.900	1.765	0.100
131.000	-13.263	0.100
131.100	4.891	0.100
131.200	-9.999	0.100
131.300	-6.201	0.100
131.400	-24.066	0.100
131.500	-5.058	0.100
131.600	-6.460	0.100
131.700	-11.941	0.100
131.800	-0.135	0.100
131.900	-8.494	0.100
132.000	-6.170	0.100
132.100	-11.335	0.100
132.200	2.357	0.100
132.300	-6.218	0.100
132.400	-12.759	0.100
132.500	-11.116	0.100
132.600	-3.663	0.100
132.700	-3.898	0.100
132.800	-5.663	0.100
132.900	1.245	0.100
133.000	1.762	0.100
133.100	-15.064	0.100
133.200	-16.131	0.100
133.300	-10.448	0.100
133.400	2.059	0.100
133.500	6.518	0.100
133.600	-10.079	0.100
133.700	-12.544	0.100
133.800	-14.179	0.100
133.900	-5.618	0.100
134.000	-3.631	0.100
134.100	-9.392	0.100
134.200	-6.063	0.100
134.300	-8.899	0.100
134.400	-19.992	0.100
134.500	-11.046	0.100
134.600	-14.626	0.100
134.700	-5.986	0.100
134.800	-1.827	0.100
134.900	-19.031	0.100
135.000	-5.104	0.100
135.100	-3.434	0.100
135.200	-1.786	0.100
135.300	-16.103	0.100
135.400	-3.891	0.100
135.500	-12.159	0.100
135.600	-7.101	0.100
135.700	-7.933	0.100
135.800	5.708	0.100
135.900	-10.846	0.100
136.000	-9.410	0.100
136.100	1.354	0.100
136.200	0.565	0.100
136.300	-7.116	0.100
136.400	-9.958	0.100
136.500	-10.817	0.100
136.600	-4.724	0.100
136.700	6.118	0.100
136.800	-7.783	0.100
136.900	-5.723	0.100
137.000	-5.698	0.100
137.100	-5.611	0.100
137.200	-5.897	0.100
137.300	-4.336	0.100
137.400	-20.659	0.100
137.500	-30.028	0.100
137.600	0.139	0.100
137.700	0.651	0.100
137.800	-15.892	0.100
137.900	-4.304	0.100
138.000	-6.542	0.100
138.100	-9.063	0.100
138.200	-18.739	0.100
138.300	-15.780	0.100
138.400	-1.639	0.100
138.500	-3.002	0.100
138.600	-10.362	0.100
138.700	-4.969	0.100
138.800	9.908	0.100
138.900	-4.680	0.100
139.000	8.624	0.100
139.100	-0.156	0.100
139.200	-8.862	0.100
139.300	-10.163	0.100
139.400	-20.126	0.100
139.500	-3.786	0.100
139.600	-7.386	0.100
139.700	-0.516	0.100
139.800	-6.867	0.100
139.900	-3.746	0.100
140.000	-14.091	0.100
140.100	9.019	0.100
140.200	-7.809	0.100
140.300	0.235	0.100
140.400	-1.433	0.100
140.500	3.590	0.100
140.600	-10.401	0.100
140.700	1.066	0.100
140.800	-8.198	0.100
140.900	-15.743	0.100
141.000	-2.539	0.100
141.100	0.457	0.100
141.200	-8.501	0.100
141.300	-7.372	0.100
141.400	0.178	0.100
141.500	-10.192	0.100
141.600	-6.781	0.100
141.700	-7.719	0.100
141.800	-12.713	0.100
141.900	-11.169	0.100
142.000	-7.786	0.100
142.100	2.755	0.100
142.200	-9.910	0.100
142.300	-7.316	0.100
142.400	3.509	0.100
142.500	0.833	0.100
142.600	-11.840	0.100
142.700	-16.448	0.100
142.800	-19.708	0.100
142.900	2.852	0.100
143.000	-28.072	0.100
143.100	-3.175	0.100
143.200	-12.676	0.100
143.300	-1.698	0.100
143.400	-0.269	0.100
143.500	8.627	0.100
143.600	-11.714	0.100
143.700	-7.514	0.100
143.800	8.484	0.100
143.900	8.715	0.100
144.000	-8.631	0.100
144.100	-10.038	0.100
144.200	-1.860	0.100
144.300	-0.499	0.100
144.400	-2.123	0.100
144.500	-16.107	0.100
144.600	1.410	0.100
144.700	-8.240	0.100
144.800	-3.466	0.100
144.900	-7.104	0.100
145.000	-4.437	0.100
145.100	-13.245	0.100
145.200	-8.443	0.100
145.300	-2.616	0.100
145.400	3.820	0.100
145.500	-9.861	0.100
145.600	-11.315	0.100
145.700	-7.219	0.100
145.800	-1.669	0.100
145.900	-10.776	0.100
146.000	-4.856	0.100
146.100	0.687	0.100
146.200	-10.375	0.100
146.300	-13.094	0.100
146.400	-0.795	0.100
146.500	-10.195	0.100
146.600	-15.838	0.100
146.700	-8.110	0.100
146.800	-4.411	0.100
146.900	-7.099	0.100
147.000	-13.775	0.100
147.100	10.185	0.100
147.200	4.020	0.100
147.300	1.645	0.100
147.400	2.459	0.100
147.500	-19.835	0.100
147.600	-15.009	0.100
147.700	2.467	0.100
147.800	-14.134	0.100
147.900	-13.818	0.100
148.000	-1.144	0.100
148.100	9.619	0.100
148.200	-10.789	0.100
148.300	-21.301	0.100
148.400	8.576	0.100
148.500	-3.085	0.100
148.600	-16.621	0.100
148.700	-3.422	0.100
148.800	9.602	0.100
148.900	4.237	0.100
149.000	-0.830	0.100
149.100	-8.457	0.100
149.200	-3.754	0.100
149.300	-0.001	0.100
149.400	-6.475	0.100
149.500	-17.723	0.100
149.600	-22.415	0.100
149.700	-9.173	0.100
149.800	11.332	0.100
149.900	-6.417	0.100
150.000	0.029	0.100
150.100	-4.149	0.100
150.200	-2.907	0.100
150.300	-4.324	0.100
150.400	-8.989	0.100
150.500	-19.290	0.100
150.600	-3.525	0.100
150.700	-7.082	0.100
150.800	-8.475	0.100
150.900	4.288	0.100
151.000	2.523	0.100
151.100	-8.088	0.100
151.200	4.900	0.100
151.300	-8.851	0.100
151.400	1.928	0.100
151.500	-3.402	0.100
151.600	-12.674	0.100
151.700	-4.659	0.100
151.800	-1.766	0.100
151.900	-16.705	0.100
152.000	-0.599	0.100
152.100	8.141	0.100
152.200	-18.366	0.100
152.300	0.126	0.100
152.400	-7.214	0.100
152.500	0.063	0.100
152.600	-6.386	0.100
152.700	5.816	0.100
152.800	-4.744	0.100
152.900	-0.796	0.100
153.000	-17.830	0.100
153.100	-25.299	0.100
153.200	1.970	0.100
153.300	-9.156	0.100
153.400	-14.102	0.100
153.500	-6.224	0.100
153.600	-6.545	0.100
153.700	-20.528	0.100
153.800	1.361	0.100
153.900	1.318	0.100
154.000	0.941	0.100
154.100	3.555	0.100
154.200	-17.431	0.100
154.300	-7.066	0.100
154.400	16.415	0.100
154.500	1.694	0.100
154.600	-6.131	0.100
154.700	-8.860	0.100
154.800	-3.659	0.100
154.900	-6.662	0.100
155.000	-1.278	0.100
155.100	-5.720	0.100
155.200	-4.671	0.100
155.300	-1.740	0.100
155.400	-14.565	0.100
155.500	-3.047	0.100
155.600	-16.278	0.100
155.700	0.676	0.100
155.800	-4.937	0.100
155.900	10.085	0.100
156.000	-6.728	0.100
156.100	-5.957	0.100
156.200	-16.430	0.100
156.300	-9.950	0.100
156.400	5.112	0.100
156.500	1.767	0.100
156.600	3.708	0.100
156.700	-21.517	0.100
156.800	-12.597	0.100
156.900	-13.594	0.100
157.000	2.345	0.100
157.100	-4.943	0.100
157.200	-2.629	0.100
157.300	-12.968	0.100
157.400	-5.244	0.100
157.500	-8.641	0.100
157.600	-0.632	0.100
157.700	-11.376	0.100
157.800	-3.210	0.100
157.900	14.221	0.100
158.000	-20.695	0.100
158.100	-14.162	0.100
158.200	-10.160	0.100
158.300	-7.254	0.100
158.400	4.029	0.100
158.500	-7.396	0.100
158.600	-3.542	0.100
158.700	-7.591	0.100
158.800	-2.939	0.100
158.900	-12.034	0.100
159.000	-13.769	0.100
159.100	1.381	0.100
159.200	3.305	0.100
159.300	-9.639	0.100
159.400	-12.468	0.100
159.500	12.137	0.100
159.600	-7.375	0.100
159.700	-0.252	0.100
159.800	-12.380	0.100
159.900	-15.738	0.100
160.000	-23.270	0.100
160.100	5.135	0.100
160.200	-12.392	0.100
160.300	-11.100	0.100
160.400	0.980	0.100
160.500	8.240	0.100
160.600	-7.165	0.100
160.700	-15.020	0.100
160.800	-1.138	0.100
160.900	-4.015	0.100
161.000	-2.222	0.100
161.100	1.871	0.100
161.200	-1.940	0.100
161.300	1.425	0.100
161.400	-5.927	0.100
161.500	-9.225	0.100
161.600	3.978	0.100
161.700	1.901	0.100
161.800	-5.454	0.100
161.900	-5.529	0.100
162.000	-11.644	0.100
162.100	7.625	0.100
162.200	-5.630	0.100
162.300	-2.736	0.100
162.400	0.761	0.100
162.500	-18.980	0.100
162.600	-6.509	0.100
162.700	-7.738	0.100
162.800	1.547	0.100
162.900	-12.471	0.100
163.000	-7.279	0.100
163.100	5.858	0.100
163.200	1.101	0.100
163.300	-4.638	0.100
163.400	2.248	0.100
163.500	2.184	0.100
163.600	-10.252	0.100
163.700	0.724	0.100
163.800	-1.411	0.100
163.900	-9.563	0.100
164.000	-11.801	0.100
164.100	-13.023	0.100
164.200	-14.200	0.100
164.300	-6.527	0.100
164.400	0.290	0.100
164.500	0.418	0.100
164.600	-7.046	0.100
164.700	-9.104	0.100
164.800	-7.783	0.100
164.900	-22.607	0.100
165.000	-1.960	0.100
165.100	-3.523	0.100
165.200	2.271	0.100
165.300	-0.706	0.100
165.400	-1.429	0.100
165.500	-3.834	0.100
165.600	-10.777	0.100
165.700	-10.253	0.100
165.800	-2.595	0.100
165.900	2.727	0.100
166.000	1.867	0.100
166.100	-9.502	0.100
166.200	0.845	0.100
166.300	-3.272	0.100
166.400	0.750	0.100
166.500	-11.945	0.100
166.600	-9.738	0.100
166.700	7.720	0.100
166.800	-12.989	0.100
166.900	-13.644	0.100
167.000	3.302	0.100
167.100	2.125	0.100
167.200	-4.176	0.100
167.300	-0.780	0.100
167.400	-4.283	0.100
167.500	7.825	0.100
167.600	-4.534	0.100
167.700	-12.284	0.100
167.800	4.813	0.100
167.900	-21.011	0.100
168.000	-1.181	0.100
168.100	10.588	0.100
168.200	-7.725	0.100
168.300	-11.595	0.100
168.400	-5.061	0.100
168.500	-12.851	0.100
168.600	-7.335	0.100
168.700	-19.743	0.100
168.800	-9.942	0.100
168.900	2.803	0.100
169.000	14.776	0.100
169.100	-3.766	0.100
169.200	-11.347	0.100
169.300	-4.031	0.100
169.400	-4.585	0.100
169.500	1.125	0.100
169.600	-1.360	0.100
169.700	-8.069	0.100
169.800	-0.510	0.100
169.900	-4.630	0.100
170.000	-14.011	0.100
170.100	-2.006	0.100
170.200	5.719	0.100
170.300	-6.256	0.100
170.400	-12.658	0.100
170.500	-7.901	0.100
170.600	-6.476	0.100
170.700	7.387	0.100
170.800	-7.802	0.100
170.900	-8.825	0.100
171.000	-18.067	0.100
171.100	0.731	0.100
171.200	-4.341	0.100
171.300	-6.014	0.100
171.400	0.751	0.100
171.500	3.999	0.100
171.600	-5.111	0.100
171.700	-7.869	0.100
171.800	-7.921	0.100
171.900	-3.268	0.100
172.000	-21.108	0.100
172.100	4.775	0.100
172.200	7.608	0.100
172.300	3.776	0.100
172.400	-9.408	0.100
172.500	-6.724	0.100
172.600	-0.363	0.100
172.700	-2.018	0.100
172.800	-3.520	0.100
172.900	-8.170	0.100
173.000	-15.827	0.100
173.100	-7.343	0.100
173.200	-8.566	0.100
173.300	-12.952	0.100
173.400	3.760	0.100
173.500	-6.085	0.100
173.600	-1.378	0.100
173.700	-22.934	0.100
173.800	-8.456	0.100
173.900	-7.003	0.100
174.000	-15.959	0.100
174.100	-13.343	0.100
174.200	4.095	0.100
174.300	-0.052	0.100
174.400	-11.278	0.100
174.500	-0.800	0.100
174.600	1.098	0.100
174.700	-9.160	0.100
174.800	5.024	0.100
174.900	1.945	0.100
175.000	1.183	0.100
175.100	-2.879	0.100
175.200	-10.119	0.100
175.300	-9.335	0.100
175.400	-1.401	0.100
175.500	-8.306	0.100
175.600	-6.117	0.100
175.700	-12.771	0.100
175.800	-4.340	0.100
175.900	-11.355	0.100
176.000	-2.269	0.100
176.100	-6.736	0.100
176.200	6.683	0.100
176.300	-15.551	0.100
176.400	-0.053	0.100
176.500	4.871	0.100
176.600	-17.550	0.100
176.700	-14.506	0.100
176.800	2.196	0.100
176.900	-4.709	0.100
177.000	1.609	0.100
177.100	0.082	0.100
177.200	-0.208	0.100
177.300	-8.683	0.100
177.400	1.362	0.100
177.500	-5.800	0.100
177.600	-7.317	0.100
177.700	2.947	0.100
177.800	-2.610	0.100
177.900	-14.483	0.100
178.000	-5.444	0.100
178.100	-4.787	0.100
178.200	3.519	0.100
178.300	-3.434	0.100
178.400	-3.628	0.100
178.500	-3.214	0.100
178.600	-2.918	0.100
178.700	-0.482	0.100
178.800	5.233	0.100
178.900	-6.495	0.100
179.000	-8.266	0.100
179.100	2.966	0.100
179.200	-16.720	0.100
179.300	-1.823	0.100
179.400	2.639	0.100
179.500	-5.629	0.100
179.600	-2.238	0.100
179.700	-10.823	0.100
179.800	-10.319	0.100
179.900	-14.020	0.100
180.000	3.252	0.100
180.100	6.197	0.100
180.200	-17.957	0.100
180.300	18.945	0.100
180.400	17.614	0.100
180.500	-3.334	0.100
180.600	-8.029	0.100
180.700	13.734	0.100
180.800	19.505	0.100
180.900	18.577	0.100
181.000	12.679	0.100
181.100	7.885	0.100
181.200	8.653	0.100
181.300	8.262	0.100
181.400	17.334	0.100
181.500	23.897	0.100
181.600	6.935	0.100
181.700	25.589	0.100
181.800	12.844	0.100
181.900	13.355	0.100
182.000	18.546	0.100
182.100	25.064	0.100
182.200	16.912	0.100
182.300	11.126	0.100
182.400	-4.955	0.100
182.500	18.381	0.100
182.600	7.490	0.100
182.700	16.266	0.100
182.800	-3.507	0.100
182.900	12.214	0.100
183.000	13.430	0.100
183.100	5.294	0.100
183.200	21.481	0.100
183.300	14.484	0.100
183.400	17.102	0.100
183.500	7.256	0.100
183.600	18.645	0.100
183.700	19.067	0.100
183.800	-0.283	0.100
183.900	10.341	0.100
184.000	-5.278	0.100
184.100	8.943	0.100
184.200	10.353	0.100
184.300	18.641	0.100
184.400	8.923	0.100
184.500	10.096	0.100
184.600	-1.354	0.100
184.700	16.479	0.100
184.800	10.429	0.100
184.900	1.298	0.100
185.000	29.612	0.100
185.100	13.060	0.100
185.200	-8.692	0.100
185.300	0.734	0.100
185.400	-6.064	0.100
185.500	15.617	0.100
185.600	8.558	0.100
185.700	10.746	0.100
185.800	8.551	0.100
185.900	6.304	0.100
186.000	-0.491	0.100
186.100	13.298	0.100
186.200	6.286	0.100
186.300	-4.777	0.100
186.400	5.012	0.100
186.500	8.479	0.100
186.600	6.840	0.100
186.700	4.837	0.100
186.800	15.786	0.100
186.900	2.010	0.100
187.000	5.728	0.100
187.100	4.898	0.100
187.200	5.073	0.100
187.300	5.089	0.100
187.400	8.346	0.100
187.500	-2.381	0.100
187.600	10.608	0.100
187.700	15.628	0.100
187.800	0.314	0.100
187.900	8.163	0.100
188.000	14.648	0.100
188.100	6.832	0.100
188.200	24.956	0.100
188.300	-3.276	0.100
188.400	0.869	0.100
188.500	7.437	0.100
188.600	16.483	0.100
188.700	9.456	0.100
188.800	13.302	0.100
188.900	9.842	0.100
189.000	15.591	0.100
189.100	5.727	0.100
189.200	3.046	0.100
189.300	5.574	0.100
189.400	11.298	0.100
189.500	13.268	0.100
189.600	4.556	0.100
189.700	3.742	0.100
189.800	13.913	0.100
189.900	18.856	0.100
190.000	15.957	0.100
190.100	-3.949	0.100
190.200	-6.846	0.100
190.300	-0.836	0.100
190.400	6.774	0.100
190.500	2.634	0.100
190.600	12.718	0.100
190.700	15.041	0.100
190.800	9.158	0.100
190.900	5.995	0.100
191.000	14.283	0.100
191.100	3.211	0.100
191.200	23.833	0.100
191.300	7.824	0.100
191.400	4.286	0.100
191.500	15.497	0.100
191.600	18.605	0.100
191.700	3.749	0.100
191.800	-3.419	0.100
191.900	-3.676	0.100
192.000	14.968	0.100
192.100	19.790	0.100
192.200	12.558	0.100
192.300	-0.095	0.100
192.400	16.595	0.100
192.500	10.531	0.100
192.600	22.860	0.100
192.700	15.298	0.100
192.800	20.931	0.100
192.900	1.044	0.100
193.000	5.063	0.100
193.100	-6.132	0.100
193.200	16.395	0.100
193.300	9.856	0.100
193.400	7.123	0.100
193.500	24.148	0.100
193.600	15.280	0.100
193.700	11.130	0.100
193.800	12.681	0.100
193.900	2.644	0.100
194.000	10.178	0.100
194.100	6.506	0.100
194.200	7.416	0.100
194.300	13.305	0.100
194.400	5.597	0.100
194.500	7.395	0.100
194.600	10.302	0.100
194.700	23.902	0.100
194.800	3.998	0.100
194.900	11.978	0.100
195.000	13.140	0.100
195.100	7.896	0.100
195.200	15.562	0.100
195.300	6.837	0.100
195.400	3.017	0.100
195.500	20.343	0.100
195.600	11.071	0.100
195.700	12.483	0.100
195.800	8.833	0.100
195.900	10.733	0.100
196.000	0.302	0.100
196.100	5.442	0.100
196.200	39.158	0.100
196.300	20.960	0.100
196.400	11.505	0.100
196.500	4.570	0.100
196.600	19.965	0.100
196.700	17.340	0.100
196.800	9.793	0.100
196.900	9.555	0.100
197.000	16.157	0.100
197.100	5.122	0.100
197.200	13.763	0.100
197.300	12.076	0.100
197.400	8.512	0.100
197.500	20.366	0.100
197.600	0.110	0.100
197.700	13.317	0.100
197.800	13.236	0.100
197.900	12.358	0.100
198.000	9.712	0.100
198.100	12.960	0.100
198.200	19.315	0.100
198.300	13.899	0.100
198.400	17.635	0.100
198.500	9.024	0.100
198.600	16.008	0.100
198.700	13.153	0.100
198.800	8.945	0.100
198.900	9.730	0.100
199.000	12.463	0.100
199.100	0.995	0.100
199.200	7.833	0.100
199.300	27.544	0.100
199.400	14.732	0.100
199.500	-3.080	0.100
199.600	10.913	0.100
199.700	13.263	0.100
199.800	10.578	0.100
199.900	8.798	0.100
200.000	4.613	0.100
200.100	24.354	0.100
200.200	28.198	0.100
200.300	22.886	0.100
200.400	15.973	0.100
200.500	13.081	0.100
200.600	4.661	0.100
200.700	11.326	0.100
200.800	12.541	0.100
200.900	6.693	0.100
201.000	13.481	0.100
201.100	14.108	0.100
201.200	18.364	0.100
201.300	5.784	0.100
201.400	6.262	0.100
201.500	16.295	0.100
201.600	18.141	0.100
201.700	4.876	0.100
201.800	3.963	0.100
201.900	14.307	0.100
202.000	9.354	0.100
202.100	9.023	0.100
202.200	12.579	0.100
202.300	18.264	0.100
202.400	11.515	0.100
202.500	13.677	0.100
202.600	18.794	0.100
202.700	-4.879	0.100
202.800	10.527	0.100
202.900	5.537	0.100
203.000	11.937	0.100
203.100	12.164	0.100
203.200	8.473	0.100
203.300	5.775	0.100
203.400	3.805	0.100
203.500	20.069	0.100
203.600	13.427	0.100
203.700	13.569	0.100
203.800	12.414	0.100
203.900	3.626	0.100
204.000	2.387	0.100
204.100	5.104	0.100
204.200	9.319	0.100
204.300	1.313	0.100
204.400	12.802	0.100
204.500	12.281	0.100
204.600	5.952	0.100
204.700	16.307	0.100
204.800	19.410	0.100
204.900	26.758	0.100
205.000	3.555	0.100
205.100	14.140	0.100
205.200	1.364	0.100
205.300	20.073	0.100
205.400	11.718	0.100
205.500	9.754	0.100
205.600	7.594	0.100
205.700	-6.274	0.100
205.800	9.154	0.100
205.900	23.462	0.100
206.000	13.024	0.100
206.100	11.502	0.100
206.200	7.687	0.100
206.300	17.435	0.100
206.400	16.381	0.100
206.500	10.564	0.100
206.600	9.464	0.100
206.700	11.344	0.100
206.800	-2.761	0.100
206.900	13.415	0.100
207.000	18.514	0.100
207.100	23.836	0.100
207.200	21.497	0.100
207.300	3.594	0.100
207.400	4.731	0.100
207.500	6.593	0.100
207.600	0.796	0.100
207.700	-0.204	0.100
207.800	16.726	0.100
207.900	18.045	0.100
208.000	16.046	0.100
208.100	10.886	0.100
208.200	24.607	0.100
208.300	17.709	0.100
208.400	14.076	0.100
208.500	6.405	0.100
208.600	15.783	0.100
208.700	6.772	0.100
208.800	0.019	0.100
208.900	1.751	0.100
209.000	4.090	0.100
209.100	11.190	0.100
209.200	9.179	0.100
209.300	20.390	0.100
209.400	14.982	0.100
209.500	-3.154	0.100
209.600	8.401	0.100
209.700	7.082	0.100
209.800	11.976	0.100
209.900	12.400	0.100
210.000	13.568	0.100
210.100	8.102	0.100
210.200	9.236	0.100
210.300	-1.768	0.100
210.400	10.875	0.100
210.500	14.001	0.100
210.600	11.233	0.100
210.700	14.909	0.100
210.800	20.454	0.100
210.900	6.845	0.100
211.000	9.673	0.100
211.100	12.596	0.100
211.200	12.944	0.100
211.300	2.679	0.100
211.400	13.019	0.100
211.500	15.882	0.100
211.600	-1.642	0.100
211.700	12.033	0.100
211.800	9.678	0.100
211.900	15.264	0.100
212.000	21.019	0.100
212.100	12.256	0.100
212.200	11.413	0.100
212.300	4.741	0.100
212.400	5.831	0.100
212.500	19.262	0.100
212.600	13.757	0.100
212.700	18.002	0.100
212.800	10.000	0.100
212.900	9.935	0.100
213.000	9.797	0.100
213.100	8.284	0.100
213.200	6.648	0.100
213.300	-2.585	0.100
213.400	-5.339	0.100
213.500	16.128	0.100
213.600	1.065	0.100
213.700	16.520	0.100
213.800	12.774	0.100
213.900	16.192	0.100
214.000	6.945	0.100
214.100	6.816	0.100
214.200	-1.730	0.100
214.300	1.195	0.100
214.400	15.104	0.100
214.500	19.682	0.100
214.600	0.120	0.100
214.700	5.152	0.100
214.800	11.925	0.100
214.900	-2.073	0.100
215.000	4.656	0.100
215.100	22.984	0.100
215.200	14.486	0.100
215.300	-1.183	0.100
215.400	16.380	0.100
215.500	11.017	0.100
215.600	2.420	0.100
215.700	18.092	0.100
215.800	3.996	0.100
215.900	14.013	0.100
216.000	2.000	0.100
216.100	16.273	0.100
216.200	4.944	0.100
216.300	-9.473	0.100
216.400	18.379	0.100
216.500	9.553	0.100
216.600	7.550	0.100
216.700	10.290	0.100
216.800	10.954	0.100
216.900	5.593	0.100
217.000	5.259	0.100
217.100	3.196	0.100
217.200	13.350	0.100
217.300	12.628	0.100
217.400	18.586	0.100
217.500	4.574	0.100
217.600	17.433	0.100
217.700	-1.220	0.100
217.800	21.144	0.100
217.900	16.622	0.100
218.000	16.261	0.100
218.100	5.413	0.100
218.200	4.779	0.100
218.300	2.169	0.100
218.400	2.383	0.100
218.500	-0.519	0.100
218.600	9.615	0.100
218.700	8.757	0.100
218.800	8.642	0.100
218.900	11.577	0.100
219.000	8.882	0.100
219.100	9.284	0.100
219.200	11.563	0.100
219.300	18.405	0.100
219.400	13.639	0.100
219.500	5.652	0.100
219.600	13.475	0.100
219.700	13.072	0.100
219.800	12.091	0.100
219.900	-1.624	0.100
220.000	18.218	0.100
220.100	5.998	0.100
220.200	7.030	0.100
220.300	-2.419	0.100
220.400	21.633	0.100
220.500	8.791	0.100
220.600	10.640	0.100
220.700	2.958	0.100
220.800	14.616	0.100
220.900	15.684	0.100
221.000	1.989	0.100
221.100	12.695	0.100
221.200	19.941	0.100
221.300	10.064	0.100
221.400	3.851	0.100
221.500	8.343	0.100
221.600	15.277	0.100
221.700	12.498	0.100
221.800	10.601	0.100
221.900	10.929	0.100
222.000	17.662	0.100
222.100	9.045	0.100
222.200	1.571	0.100
222.300	11.574	0.100
222.400	5.142	0.100
222.500	4.863	0.100
222.600	8.086	0.100
222.700	18.473	0.100
222.800	15.702	0.100
222.900	-3.595	0.100
223.000	11.913	0.100
223.100	14.111	0.100
223.200	10.986	0.100
223.300	2.205	0.100
223.400	15.871	0.100
223.500	7.183	0.100
223.600	3.655	0.100
223.700	20.328	0.100
223.800	4.830	0.100
223.900	17.899	0.100
224.000	14.528	0.100
224.100	0.729	0.100
224.200	9.941	0.100
224.300	13.126	0.100
224.400	10.669	0.100
224.500	6.239	0.100
224.600	6.418	0.100
224.700	12.025	0.100
224.800	10.562	0.100
224.900	13.453	0.100
225.000	5.443	0.100
225.100	7.310	0.100
225.200	2.717	0.100
225.300	4.663	0.100
225.400	8.114	0.100
225.500	27.847	0.100
225.600	19.333	0.100
225.700	-7.553	0.100
225.800	0.809	0.100
225.900	-0.304	0.100
226.000	12.822	0.100
226.100	6.489	0.100
226.200	9.951	0.100
226.300	7.327	0.100
226.400	-10.428	0.100
226.500	14.302	0.100
226.600	20.388	0.100
226.700	11.328	0.100
226.800	15.188	0.100
226.900	5.599	0.100
227.000	10.935	0.100
227.100	5.257	0.100
227.200	2.580	0.100
227.300	1.341	0.100
227.400	13.933	0.100
227.500	20.934	0.100
227.600	10.804	0.100
227.700	20.731	0.100
227.800	4.931	0.100
227.900	18.390	0.100
228.000	8.382	0.100
228.100	11.509	0.100
228.200	11.169	0.100
228.300	9.307	0.100
228.400	-1.795	0.100
228.500	-4.886	0.100
228.600	-3.604	0.100
228.700	7.903	0.100
228.800	16.820	0.100
228.900	6.026	0.100
229.000	13.730	0.100
229.100	3.973	0.100
229.200	12.533	0.100
229.300	3.757	0.100
229.400	14.106	0.100
229.500	15.747	0.100
229.600	8.234	0.100
229.700	9.652	0.100
229.800	20.570	0.100
229.900	-0.704	0.100
230.000	6.626	0.100
230.100	1.805	0.100
230.200	8.552	0.100
230.300	1.948	0.100
230.400	6.272	0.100
230.500	23.934	0.100
230.600	20.770	0.100
230.700	4.596	0.100
230.800	-3.369	0.100
230.900	4.101	0.100
231.000	20.278	0.100
231.100	6.299	0.100
231.200	13.243	0.100
231.300	20.690	0.100
231.400	-13.904	0.100
231.500	9.563	0.100
231.600	9.632	0.100
231.700	-0.134	0.100
231.800	12.040	0.100
231.900	13.468	0.100
232.000	4.217	0.100
232.100	8.560	0.100
232.200	17.396	0.100
232.300	9.894	0.100
232.400	11.579	0.100
232.500	7.407	0.100
232.600	9.289	0.100
232.700	9.114	0.100
232.800	20.475	0.100
232.900	10.536	0.100
233.000	12.814	0.100
233.100	-2.275	0.100
233.200	-10.678	0.100
233.300	10.131	0.100
233.400	-3.626	0.100
233.500	22.545	0.100
233.600	12.348	0.100
233.700	18.883	0.100
233.800	17.835	0.100
233.900	6.853	0.100
234.000	10.578	0.100
234.100	5.978	0.100
234.200	11.485	0.100
234.300	3.418	0.100
234.400	15.381	0.100
234.500	1.001	0.100
234.600	0.610	0.100
234.700	4.293	0.100
234.800	21.874	0.100
234.900	13.151	0.100
235.000	-0.782	0.100
235.100	12.206	0.100
235.200	8.252	0.100
235.300	7.655	0.100
235.400	16.163	0.100
235.500	16.017	0.100
235.600	5.435	0.100
235.700	11.137	0.100
235.800	-0.884	0.100
235.900	6.964	0.100
236.000	-3.112	0.100
236.100	3.629	0.100
236.200	8.827	0.100
236.300	18.296	0.100
236.400	8.239	0.100
236.500	-2.542	0.100
236.600	10.378	0.100
236.700	5.466	0.100
236.800	1.482	0.100
236.900	-0.278	0.100
237.000	-1.763	0.100
237.100	19.029	0.099
237.200	17.236	0.100
237.300	19.817	0.100
237.400	-7.940	0.100
237.500	12.170	0.100
237.600	13.994	0.100
237.700	15.192	0.100
237.800	12.912	0.100
237.900	12.775	0.100
238.000	-5.081	0.100
238.100	4.305	0.099
238.200	2.181	0.100
238.300	14.349	0.100
238.400	27.023	0.100
238.500	11.296	0.100
238.600	3.669	0.100
238.700	7.350	0.100
238.800	7.846	0.100
238.900	-3.159	0.100
239.000	7.622	0.100
239.100	6.895	0.099
239.200	14.205	0.100
239.300	9.428	0.100
239.400	14.750	0.100
239.500	9.879	0.099
239.600	9.595	0.100
239.700	3.254	0.099
239.800	-0.184	0.100
239.900	3.201	0.100
240.000	10.418	0.099
240.100	9.113	0.100
240.200	1.365	0.100
240.300	3.308	0.099
240.400	9.640	0.100
240.500	-6.656	0.099
240.600	-4.992	0.099
240.700	2.930	0.100
240.800	7.008	0.099
240.900	-9.691	0.099
241.000	-16.165	0.099
241.100	-14.654	0.099
241.200	-13.170	0.099
241.300	-14.737	0.099
241.400	-21.038	0.099
241.500	-5.806	0.099
241.600	4.000	0.099
241.700	-16.380	0.099
241.800	-24.585	0.099
241.900	-2.751	0.099
242.000	-3.441	0.099
242.100	-9.029	0.099
242.200	-11.415	0.099
242.300	-15.877	0.099
242.400	-18.953	0.099
242.500	-16.636	0.099
242.600	-17.516	0.099
242.700	-11.739	0.099
242.800	-10.802	0.099
242.900	-30.651	0.099
243.000	-24.217	0.099
243.100	-13.506	0.099
243.200	-17.647	0.099
243.300	-19.571	0.099
243.400	-20.135	0.099
243.500	-6.159	0.099
243.600	-13.001	0.099
243.700	-22.608	0.099
243.800	-19.945	0.099
243.900	-25.309	0.099
244.000	-20.699	0.099
244.100	-5.977	0.099
244.200	-1.010	0.099
244.300	-14.856	0.099
244.400	-9.394	0.099
244.500	-4.438	0.099
244.600	-15.051	0.099
244.700	-17.590	0.099
244.800	-18.600	0.099
244.900	-18.193	0.099
245.000	-16.363	0.099
245.100	-8.030	0.099
245.200	-26.248	0.099
245.300	-9.896	0.099
245.400	-8.178	0.099
245.500	-13.622	0.099
245.600	-16.016	0.099
245.700	-13.004	0.099
245.800	-15.636	0.099
245.900	-2.163	0.099
246.000	-8.784	0.099
246.100	-4.792	0.099
246.200	-20.703	0.099
246.300	-6.424	0.099
246.400	-17.809	0.099
246.500	-14.629	0.099
246.600	-17.716	0.099
246.700	-8.500	0.099
246.800	-4.979	0.099
246.900	-18.539	0.099
247.000	-3.571	0.099
247.100	-15.440	0.099
247.200	-0.237	0.099
247.300	-9.428	0.099
247.400	-8.109	0.099
247.500	-16.725	0.099
247.600	-24.734	0.099
247.700	-8.550	0.099
247.800	-15.105	0.099
247.900	-7.230	0.099
248.000	0.669	0.099
248.100	-8.003	0.099
248.200	-24.224	0.099
248.300	-7.658	0.099
248.400	-23.322	0.099
248.500	-3.298	0.099
248.600	-4.220	0.099
248.700	-10.108	0.099
248.800	-10.477	0.099
248.900	-19.802	0.099
249.000	-8.650	0.099
249.100	-9.621	0.099
249.200	-0.227	0.099
249.300	-16.828	0.099
249.400	-0.715	0.099
249.500	-17.129	0.099
249.600	-17.768	0.099
249.700	-26.460	0.099
249.800	-8.655	0.099
249.900	-4.194	0.099
250.000	-0.651	0.099
250.100	-32.397	0.099
250.200	-15.225	0.099
250.300	-0.673	0.099
250.400	-9.466	0.099
250.500	-21.274	0.099
250.600	-12.522	0.099
250.700	-7.572	0.099
250.800	-6.941	0.099
250.900	-6.051	0.099
251.000	-5.014	0.099
251.100	0.367	0.099
251.200	-11.042	0.099
251.300	-10.073	0.099
251.400	-14.666	0.099
251.500	-5.989	0.099
251.600	-12.753	0.099
251.700	-15.273	0.099
251.800	-16.826	0.099
251.900	-15.871	0.099
252.000	-13.496	0.099
252.100	-5.316	0.099
252.200	11.738	0.099
252.300	-17.533	0.099
252.400	-19.096	0.099
252.500	-7.102	0.099
252.600	-16.300	0.099
252.700	-7.313	0.099
252.800	-4.067	0.099
252.900	-15.925	0.099
253.000	-22.104	0.099
253.100	-5.778	0.099
253.200	-3.303	0.099
253.300	-4.534	0.099
253.400	-10.789	0.099
253.500	-5.875	0.099
253.600	-19.235	0.099
253.700	-14.806	0.099
253.800	-21.510	0.099
253.900	-18.219	0.099
254.000	-3.698	0.099
254.100	-1.282	0.099
254.200	-14.263	0.099
254.300	0.925	0.099
254.400	-2.780	0.099
254.500	-4.774	0.099
254.600	-5.926	0.099
254.700	-9.643	0.099
254.800	-13.248	0.099
254.900	-4.258	0.099
255.000	-18.926	0.099
255.100	-4.216	0.099
255.200	-9.522	0.099
255.300	-8.617	0.099
255.400	-15.263	0.099
255.500	-18.347	0.099
255.600	-13.989	0.099
255.700	-3.729	0.099
255.800	-8.434	0.099
255.900	-7.425	0.099
256.000	-11.410	0.099
256.100	-13.227	0.099
256.200	-4.435	0.099
256.300	-13.800	0.099
256.400	-6.777	0.099
256.500	-14.091	0.099
256.600	-14.351	0.099
256.700	-10.093	0.099
256.800	-5.888	0.099
256.900	-11.292	0.099
257.000	-16.257	0.099
257.100	-2.053	0.099
257.200	2.378	0.099
257.300	-19.752	0.099
257.400	-8.426	0.099
257.500	-19.175	0.099
257.600	-18.146	0.099
257.700	2.824	0.099
257.800	-16.694	0.099
257.900	-7.321	0.099
258.000	-5.540	0.099
258.100	0.699	0.099
258.200	-16.524	0.099
258.300	-3.701	0.099
258.400	-7.267	0.099
258.500	-2.655	0.099
258.600	-7.087	0.099
258.700	-12.114	0.099
258.800	-4.998	0.099
258.900	-9.372	0.099
259.000	-5.222	0.099
259.100	-6.084	0.099
259.200	-12.484	0.099
259.300	-8.522	0.099
259.400	-9.088	0.099
259.500	-4.437	0.099
259.600	-1.172	0.099
259.700	-9.431	0.099
259.800	-9.964	0.099
259.900	-9.613	0.099
260.000	-24.701	0.099
260.100	-17.705	0.099
260.200	-11.853	0.099
260.300	-21.683	0.099
260.400	-10.215	0.099
260.500	-18.828	0.099
260.600	-6.077	0.099
260.700	-7.867	0.099
260.800	-0.634	0.099
260.900	-7.935	0.099
261.000	-23.357	0.099
261.100	-18.774	0.099
261.200	-3.965	0.099
261.300	-14.674	0.099
261.400	-5.635	0.099
261.500	2.881	0.099
261.600	-5.563	0.099
261.700	-17.099	0.099
261.800	-12.887	0.099
261.900	2.961	0.099
262.000	-9.289	0.099
262.100	-13.918	0.099
262.200	-10.751	0.099
262.300	-6.592	0.099
262.400	-12.190	0.099
262.500	-8.699	0.099
262.600	-17.511	0.099
262.700	-24.657	0.099
262.800	-5.885	0.099
262.900	-25.747	0.099
263.000	-13.814	0.099
263.100	-1.698	0.099
263.200	-7.132	0.099
263.300	-1.007	0.099
263.400	-12.435	0.099
263.500	-15.690	0.099
263.600	-16.653	0.099
263.700	-10.546	0.099
263.800	-14.418	0.099
263.900	-10.200	0.099
264.000	-9.703	0.099
264.100	-15.264	0.099
264.200	-2.571	0.099
264.300	7.164	0.099
264.400	-10.822	0.099
264.500	-14.774	0.099
264.600	-13.990	0.099
264.700	-19.094	0.099
264.800	5.335	0.099
264.900	-13.066	0.099
265.000	-14.189	0.099
265.100	-16.920	0.099
265.200	1.295	0.099
265.300	-18.047	0.099
265.400	-9.770	0.099
265.500	-2.547	0.099
265.600	-6.061	0.099
265.700	-9.452	0.099
265.800	-20.171	0.099
265.900	-11.896	0.099
266.000	-2.327	0.099
266.100	-15.976	0.099
266.200	-22.853	0.099
266.300	-5.954	0.099
266.400	-9.161	0.099
266.500	-11.332	0.099
266.600	-3.305	0.099
266.700	2.194	0.099
266.800	-12.491	0.099
266.900	-15.847	0.099
267.000	-8.225	0.099
267.100	-13.419	0.099
267.200	-1.429	0.099
267.300	-7.653	0.099
267.400	-10.865	0.099
267.500	-17.555	0.099
267.600	-0.961	0.099
267.700	-12.891	0.099
267.800	-5.318	0.099
267.900	-7.354	0.099
268.000	-12.202	0.099
268.100	-7.206	0.099
268.200	-22.228	0.099
268.300	-22.556	0.099
268.400	-0.925	0.099
268.500	2.374	0.099
268.600	-13.330	0.099
268.700	-7.057	0.099
268.800	-3.240	0.099
268.900	1.840	0.099
269.000	-5.978	0.099
269.100	-9.672	0.099
269.200	-13.145	0.099
269.300	-7.130	0.099
269.400	-8.839	0.099
269.500	0.851	0.099
269.600	-10.786	0.099
269.700	-14.980	0.099
269.800	-4.795	0.099
269.900	-15.053	0.099
270.000	-13.006	0.099
270.100	1.839	0.099
270.200	-5.519	0.099
270.300	-14.345	0.099
270.400	-0.640	0.099
270.500	-13.242	0.099
270.600	-19.219	0.099
270.700	-15.297	0.099
270.800	-21.235	0.099
270.900	-9.073	0.099
271.000	-12.324	0.099
271.100	-5.550	0.099
271.200	-11.719	0.099
271.300	-4.205	0.099
271.400	-10.451	0.099
271.500	0.970	0.099
271.600	-5.000	0.099
271.700	-7.818	0.099
271.800	-8.086	0.099
271.900	-12.383	0.099
272.000	-10.546	0.099
272.100	-1.672	0.099
272.200	-2.764	0.099
272.300	-1.471	0.099
272.400	-3.584	0.099
272.500	0.277	0.099
272.600	-14.603	0.099
272.700	-6.363	0.099
272.800	-4.375	0.099
272.900	-7.464	0.099
273.000	-11.015	0.099
273.100	-7.743	0.099
273.200	-6.874	0.099
273.300	-27.759	0.099
273.400	-2.477	0.099
273.500	5.793	0.099
273.600	-2.568	0.099
273.700	-22.881	0.099
273.800	-16.671	0.099
273.900	1.968	0.099
274.000	2.895	0.099
274.100	-17.613	0.099
274.200	-8.283	0.099
274.300	-7.922	0.099
274.400	-17.757	0.099
274.500	-3.782	0.099
274.600	-12.059	0.099
274.700	-15.150	0.099
274.800	-14.900	0.099
274.900	-9.747	0.099
275.000	-6.454	0.099
275.100	-13.661	0.099
275.200	-6.234	0.099
275.300	-12.214	0.099
275.400	-10.494	0.099
275.500	-16.787	0.099
275.600	-15.664	0.099
275.700	-14.827	0.099
275.800	-8.801	0.099
275.900	1.164	0.099
276.000	-3.761	0.099
276.100	-13.175	0.099
276.200	-14.286	0.099
276.300	-5.483	0.099
276.400	-5.676	0.099
276.500	-12.082	0.099
276.600	-9.749	0.099
276.700	-3.126	0.099
276.800	-11.992	0.099
276.900	-8.409	0.099
277.000	-6.669	0.099
277.100	-16.876	0.099
277.200	-12.168	0.099
277.300	9.278	0.099
277.400	1.402	0.099
277.500	8.982	0.099
277.600	-4.057	0.099
277.700	-12.867	0.099
277.800	-5.588	0.099
277.900	-1.285	0.099
278.000	-15.442	0.099
278.100	-13.244	0.099
278.200	-12.440	0.099
278.300	-4.043	0.099
278.400	-3.689	0.099
278.500	-15.474	0.099
278.600	-14.542	0.099
278.700	-4.027	0.099
278.800	10.157	0.099
278.900	-31.484	0.099
279.000	-20.577	0.099
279.100	-5.108	0.099
279.200	-6.321	0.099
279.300	0.223	0.099
279.400	-7.634	0.099
279.500	-7.870	0.099
279.600	4.859	0.099
279.700	-16.371	0.099
279.800	-18.580	0.099
279.900	-9.522	0.099
280.000	-10.289	0.099
280.100	3.245	0.099
280.200	-12.339	0.099
280.300	-12.615	0.099
280.400	-3.324	0.099
280.500	-14.119	0.099
280.600	-18.541	0.099
280.700	-10.931	0.099
280.800	-14.245	0.099
280.900	-12.185	0.099
281.000	1.483	0.099
281.100	-12.290	0.099
281.200	-3.867	0.099
281.300	-6.118	0.099
281.400	-12.692	0.099
281.500	-4.105	0.099
281.600	-18.582	0.099
281.700	-14.500	0.099
281.800	-8.010	0.099
281.900	-3.046	0.099
282.000	8.147	0.099
282.100	-4.905	0.099
282.200	-4.220	0.099
282.300	-28.132	0.099
282.400	-21.300	0.099
282.500	-16.321	0.099
282.600	5.071	0.099
282.700	-6.183	0.099
282.800	-6.645	0.099
282.900	-2.178	0.099
283.000	-2.488	0.099
283.100	-7.766	0.099
283.200	3.954	0.099
283.300	-14.565	0.099
283.400	1.656	0.099
283.500	-4.765	0.099
283.600	-22.512	0.099
283.700	-24.309	0.099
283.800	-13.610	0.099
283.900	1.629	0.099
284.000	-9.630	0.099
284.100	0.092	0.099
284.200	-0.260	0.099
284.300	-16.102	0.099
284.400	-12.482	0.099
284.500	-20.001	0.099
284.600	-13.788	0.099
284.700	-16.841	0.099
284.800	3.566	0.099
284.900	-5.803	0.099
285.000	-13.955	0.099
285.100	-10.318	0.099
285.200	-20.408	0.099
285.300	-10.119	0.099
285.400	-17.380	0.099
285.500	-9.495	0.099
285.600	-2.058	0.099
285.700	-11.337	0.099
285.800	-16.766	0.099
285.900	-14.865	0.099
286.000	-21.782	0.099
286.100	-2.658	0.099
286.200	-1.968	0.099
286.300	-7.598	0.099
286.400	-0.618	0.099
286.500	-8.615	0.099
286.600	1.797	0.099
286.700	-1.024	0.099
286.800	-5.876	0.099
286.900	-26.177	0.099
287.000	-4.239	0.099
287.100	1.459	0.099
287.200	-5.475	0.099
287.300	-7.852	0.099
287.400	-12.593	0.099
287.500	-11.092	0.099
287.600	-5.745	0.099
287.700	-3.410	0.099
287.800	-5.130	0.099
287.900	-5.401	0.099
288.000	-9.305	0.099
288.100	-9.883	0.099
288.200	-8.454	0.099
288.300	-1.677	0.099
288.400	-13.481	0.099
288.500	-1.089	0.099
288.600	-3.343	0.099
288.700	-12.613	0.099
288.800	-8.763	0.099
288.900	-14.257	0.099
289.000	1.456	0.099
289.100	-8.738	0.099
289.200	-1.691	0.099
289.300	-10.224	0.099
289.400	-12.350	0.099
289.500	-31.873	0.099
289.600	-1.717	0.099
289.700	13.632	0.099
289.800	3.076	0.099
289.900	1.941	0.099
290.000	-2.906	0.099
290.100	-2.057	0.099
290.200	-13.638	0.099
290.300	-7.991	0.099
290.400	-3.606	0.099
290.500	-12.922	0.099
290.600	-6.247	0.099
290.700	-10.897	0.099
290.800	5.212	0.099
290.900	-9.776	0.099
291.000	-0.589	0.099
291.100	-6.649	0.099
291.200	-7.167	0.099
291.300	-17.227	0.099
291.400	-5.630	0.099
291.500	-8.713	0.099
291.600	-18.714	0.099
291.700	-9.387	0.099
291.800	-9.042	0.099
291.900	-20.252	0.099
292.000	-2.805	0.099
292.100	1.531	0.099
292.200	-11.477	0.099
292.300	-10.927	0.099
292.400	-5.291	0.099
292.500	-16.765	0.099
292.600	-7.497	0.099
292.700	-10.706	0.099
292.800	-1.652	0.099
292.900	-3.561	0.099
293.000	-13.091	0.100
293.100	-10.892	0.100
293.200	-7.093	0.100
293.300	-3.728	0.100
293.400	-1.726	0.100
293.500	-20.688	0.100
293.600	-6.506	0.100
293.700	-6.689	0.100
293.800	-10.885	0.100
293.900	-16.195	0.100
294.000	-9.332	0.100
294.100	-4.139	0.100
294.200	-12.618	0.100
294.300	-8.456	0.100
294.400	-9.853	0.100
294.500	-18.314	0.100
294.600	-9.516	0.100
294.700	-11.383	0.100
294.800	-14.042	0.100
294.900	-4.557	0.100
295.000	-8.254	0.100
295.100	-10.549	0.100
295.200	-13.948	0.100
295.300	-0.480	0.100
295.400	-0.457	0.100
295.500	-4.672	0.100
295.600	-5.933	0.100
295.700	-6.075	0.100
295.800	-9.960	0.100
295.900	-14.042	0.100
296.000	-17.166	0.100
296.100	-7.832	0.100
296.200	-5.486	0.100
296.300	-8.315	0.100
296.400	-10.826	0.100
296.500	-12.914	0.100
296.600	-3.132	0.100
296.700	-9.433	0.100
296.800	1.256	0.100
296.900	8.175	0.100
297.000	-6.427	0.100
297.100	-13.771	0.100
297.200	-9.399	0.100
297.300	-5.547	0.100
297.400	1.582	0.100
297.500	-10.341	0.100
297.600	5.710	0.100
297.700	-9.157	0.100
297.800	-1.145	0.100
297.900	-22.765	0.100
298.000	-27.632	0.100
298.100	-12.229	0.100
298.200	-8.929	0.100
298.300	-1.795	0.100
298.400	0.369	0.100
298.500	-12.409	0.100
298.600	4.253	0.100
298.700	-8.087	0.100
298.800	-10.907	0.100
298.900	-11.886	0.100
299.000	-8.566	0.100
299.100	-7.326	0.100
299.200	-29.297	0.100
299.300	-4.825	0.100
299.400	-12.006	0.100
299.500	-16.323	0.100
299.600	-2.550	0.100
299.700	-3.751	0.100
299.800	-13.632	0.100
299.900	-2.547	0.100
300.000	-8.605	0.100
300.100	-4.601	0.100
300.200	9.624	0.100
300.300	-3.607	0.100
300.400	-11.936	0.100
300.500	-11.388	0.100
300.600	-11.079	0.100
300.700	4.031	0.100
300.800	-15.077	0.100
300.900	-10.516	0.100
301.000	-15.628	0.100
301.100	-2.566	0.100
301.200	-7.198	0.100
301.300	-18.634	0.100
301.400	-5.980	0.100
301.500	-16.539	0.100
301.600	-8.651	0.100
301.700	-4.940	0.100
301.800	-8.818	0.100
301.900	-1.695	0.100
302.000	-4.351	0.100
302.100	-13.431	0.100
302.200	7.202	0.100
302.300	-3.989	0.100
302.400	-9.258	0.100
302.500	-11.084	0.100
302.600	-10.061	0.100
302.700	-8.766	0.100
302.800	-7.190	0.100
302.900	-8.146	0.100
303.000	4.280	0.100
303.100	-14.603	0.100
303.200	-3.006	0.100
303.300	-2.813	0.100
303.400	-8.779	0.100
303.500	-3.309	0.100
303.600	-6.567	0.100
303.700	-18.776	0.100
303.800	-2.040	0.100
303.900	1.503	0.100
304.000	-12.955	0.100
304.100	-5.433	0.100
304.200	-12.931	0.100
304.300	-4.054	0.100
304.400	-14.852	0.100
304.500	-16.404	0.100
304.600	-0.934	0.100
304.700	-14.176	0.100
304.800	-11.247	0.100
304.900	-5.020	0.100
305.000	-6.003	0.100
305.100	2.996	0.100
305.200	-2.787	0.100
305.300	3.956	0.100
305.400	-4.875	0.100
305.500	-5.474	0.100
305.600	-15.185	0.100
305.700	0.704	0.100
305.800	-0.921	0.100
305.900	-9.755	0.100
306.000	-10.770	0.100
306.100	-5.796	0.100
306.200	-0.828	0.100
306.300	-32.535	0.100
306.400	-12.394	0.100
306.500	11.477	0.100
306.600	-12.415	0.100
306.700	-12.597	0.100
306.800	-13.114	0.100
306.900	-23.635	0.100
307.000	5.670	0.100
307.100	-12.792	0.100
307.200	-16.952	0.100
307.300	0.142	0.100
307.400	-10.027	0.100
307.500	5.830	0.100
307.600	0.439	0.100
307.700	-21.072	0.100
307.800	-5.424	0.100
307.900	-2.437	0.100
308.000	-8.663	0.100
308.100	-7.872	0.100
308.200	-10.928	0.100
308.300	-9.543	0.100
308.400	-8.750	0.100
308.500	6.438	0.100
308.600	0.753	0.100
308.700	-9.389	0.100
308.800	1.117	0.100
308.900	-4.157	0.100
309.000	0.202	0.100
309.100	-12.717	0.100
309.200	-17.356	0.100
309.300	-12.983	0.100
309.400	-0.799	0.100
309.500	-8.771	0.100
309.600	-10.734	0.100
309.700	-8.293	0.100
309.800	3.224	0.100
309.900	-4.394	0.100
310.000	0.972	0.100
310.100	-5.153	0.100
310.200	-1.130	0.100
310.300	-10.117	0.100
310.400	-18.290	0.100
310.500	-7.659	0.100
310.600	-29.224	0.100
310.700	-6.236	0.100
310.800	-12.455	0.100
310.900	-5.720	0.100
311.000	-2.921	0.100
311.100	3.429	0.100
311.200	-10.173	0.100
311.300	7.765	0.100
311.400	-5.153	0.100
311.500	-15.800	0.100
311.600	-7.415	0.100
311.700	-20.317	0.100
311.800	-7.854	0.100
311.900	-7.679	0.100
312.000	2.016	0.100
312.100	1.723	0.100
312.200	1.899	0.100
312.300	-4.445	0.100
312.400	-17.276	0.100
312.500	-8.122	0.100
312.600	1.411	0.100
312.700	-9.745	0.100
312.800	-9.829	0.100
312.900	-6.187	0.100
313.000	-9.816	0.100
313.100	-10.050	0.100
313.200	-17.394	0.100
313.300	-9.989	0.100
313.400	2.028	0.100
313.500	0.420	0.100
313.600	8.373	0.100
313.700	-14.857	0.100
313.800	-10.591	0.100
313.900	-17.150	0.100
314.000	-16.707	0.100
314.100	-3.678	0.100
314.200	-15.234	0.100
314.300	3.927	0.100
314.400	3.933	0.100
314.500	-4.984	0.100
314.600	-11.594	0.100
314.700	-9.619	0.100
314.800	-6.770	0.100
314.900	-18.398	0.100
315.000	-8.434	0.100
315.100	-7.932	0.100
315.200	-14.095	0.100
315.300	-28.197	0.100
315.400	5.606	0.100
315.500	-0.328	0.100
315.600	-4.867	0.100
315.700	-9.033	0.100
315.800	-11.107	0.100
315.900	-9.914	0.100
316.000	-14.307	0.100
316.100	-4.370	0.100
316.200	-17.070	0.100
316.300	11.661	0.100
316.400	-4.677	0.100
316.500	-14.953	0.100
316.600	-6.738	0.100
316.700	-8.091	0.100
316.800	-10.761	0.100
316.900	3.464	0.100
317.000	5.186	0.100
317.100	-8.631	0.100
317.200	-10.676	0.100
317.300	-17.003	0.100
317.400	-7.015	0.100
317.500	-9.360	0.100
317.600	-1.094	0.100
317.700	12.054	0.100
317.800	1.272	0.100
317.900	-22.509	0.100
318.000	-2.474	0.100
318.100	-11.981	0.100
318.200	-9.430	0.100
318.300	-15.897	0.100
318.400	-9.335	0.100
318.500	-10.382	0.100
318.600	-2.359	0.100
318.700	-5.096	0.100
318.800	-11.077	0.100
318.900	-7.307	0.100
319.000	-6.814	0.100
319.100	7.562	0.100
319.200	-7.700	0.100
319.300	-10.586	0.100
319.400	-7.584	0.100
319.500	-19.297	0.100
319.600	-24.650	0.100
319.700	-11.478	0.100
319.800	12.167	0.100
319.900	-9.043	0.100
320.000	2.824	0.100
320.100	0.033	0.100
320.200	-1.035	0.100
320.300	-10.087	0.100
320.400	-6.663	0.100
320.500	7.367	0.100
320.600	-3.312	0.100
320.700	-14.430	0.100
320.800	-9.326	0.100
320.900	-17.276	0.100
321.000	-16.392	0.100
321.100	-8.382	0.100
321.200	6.735	0.100
321.300	-8.511	0.100
321.400	-4.554	0.100
321.500	-8.671	0.100
321.600	-2.310	0.100
321.700	-4.144	0.100
321.800	-7.147	0.100
321.900	-19.823	0.100
322.000	-8.279	0.100
322.100	-12.342	0.100
322.200	-10.196	0.100
322.300	-5.149	0.100
322.400	3.283	0.100
322.500	-3.349	0.100
322.600	-4.549	0.100
322.700	-6.633	0.100
322.800	4.442	0.100
322.900	-13.357	0.100
323.000	-0.820	0.100
323.100	-2.639	0.100
323.200	-11.221	0.100
323.300	-12.106	0.100
323.400	3.239	0.100
323.500	-3.389	0.100
323.600	-3.268	0.100
323.700	-12.474	0.100
323.800	-21.704	0.100
323.900	-11.298	0.100
324.000	-13.439	0.100
324.100	-7.448	0.100
324.200	-3.580	0.100
324.300	6.165	0.100
324.400	2.054	0.100
324.500	7.925	0.100
324.600	-7.912	0.100
324.700	-7.215	0.100
324.800	-9.351	0.100
324.900	-16.099	0.100
325.000	-7.782	0.100
325.100	-11.337	0.100
325.200	1.393	0.100
325.300	-7.283	0.100
325.400	-2.368	0.100
325.500	-11.226	0.100
325.600	-18.732	0.100
325.700	-3.166	0.100
325.800	-0.179	0.100
325.900	20.423	0.100
326.000	-14.090	0.100
326.100	-13.336	0.100
326.200	-20.923	0.100
326.300	-1.505	0.100
326.400	-3.952	0.100
326.500	-14.454	0.100
326.600	-1.570	0.100
326.700	4.530	0.100
326.800	-10.453	0.100
326.900	-21.158	0.100
327.000	-2.993	0.100
327.100	5.097	0.100
327.200	-6.039	0.100
327.300	-5.228	0.100
327.400	2.307	0.100
327.500	-1.080	0.100
327.600	4.258	0.100
327.700	5.645	0.100
327.800	-19.220	0.100
327.900	-23.757	0.100
328.000	-15.826	0.100
328.100	-15.611	0.100
328.200	-3.560	0.100
328.300	4.789	0.100
328.400	-13.622	0.100
328.500	-2.395	0.100
328.600	-14.446	0.100
328.700	-2.115	0.100
328.800	-0.242	0.100
328.900	-3.828	0.100
329.000	6.266	0.100
329.100	-17.911	0.100
329.200	-11.247	0.100
329.300	-2.310	0.100
329.400	-15.540	0.100
329.500	-3.451	0.100
329.600	-15.177	0.100
329.700	5.644	0.100
329.800	-3.949	0.100
329.900	-14.903	0.100
330.000	2.210	0.100
330.100	6.096	0.100
330.200	5.930	0.100
330.300	4.660	0.100
330.400	2.868	0.100
330.500	9.610	0.100
330.600	6.368	0.100
330.700	4.990	0.100
330.800	0.805	0.100
330.900	4.818	0.100
331.000	8.545	0.100
331.100	25.914	0.100
331.200	8.433	0.100
331.300	6.897	0.100
331.400	18.408	0.100
331.500	5.688	0.100
331.600	9.369	0.100
331.700	12.421	0.100
331.800	4.829	0.100
331.900	3.312	0.100
332.000	16.019	0.100
332.100	7.787	0.100
332.200	11.219	0.100
332.300	24.917	0.100
332.400	5.075	0.100
332.500	19.359	0.100
332.600	20.121	0.100
332.700	7.897	0.100
332.800	10.391	0.100
332.900	9.447	0.100
333.000	14.520	0.100
333.100	9.802	0.100
333.200	20.425	0.100
333.300	15.113	0.100
333.400	-9.398	0.100
333.500	12.167	0.100
333.600	17.407	0.100
333.700	9.563	0.100
333.800	5.478	0.100
333.900	4.580	0.100
334.000	2.010	0.100
334.100	7.683	0.100
334.200	5.787	0.100
334.300	-2.606	0.100
334.400	13.540	0.100
334.500	13.846	0.100
334.600	-6.210	0.100
334.700	21.194	0.100
334.800	0.667	0.100
334.900	9.440	0.100
335.000	-8.338	0.100
335.100	1.795	0.100
335.200	22.075	0.100
335.300	18.146	0.100
335.400	0.736	0.100
335.500	18.524	0.100
335.600	2.433	0.100
335.700	-13.270	0.100
335.800	13.016	0.100
335.900	-3.645	0.100
336.000	4.228	0.100
336.100	6.767	0.100
336.200	-1.051	0.100
336.300	13.133	0.100
336.400	0.455	0.100
336.500	2.799	0.100
336.600	9.493	0.100
336.700	1.841	0.100
336.800	8.506	0.100
336.900	0.152	0.100
337.000	-8.179	0.100
337.100	1.189	0.100
337.200	-0.340	0.100
337.300	15.884	0.100
337.400	14.399	0.100
337.500	19.003	0.100
337.600	12.198	0.100
337.700	4.231	0.100
337.800	5.343	0.100
337.900	7.787	0.100
338.000	5.447	0.100
338.100	10.083	0.100
338.200	5.113	0.100
338.300	-5.860	0.100
338.400	9.433	0.100
338.500	7.079	0.100
338.600	3.347	0.100
338.700	9.059	0.100
338.800	-10.948	0.100
338.900	5.915	0.100
339.000	2.966	0.100
339.100	11.359	0.100
339.200	13.193	0.100
339.300	-0.492	0.100
339.400	3.122	0.100
339.500	-4.309	0.100
339.600	3.418	0.100
339.700	2.839	0.100
339.800	-9.343	0.100
339.900	12.139	0.100
340.000	12.850	0.100
340.100	13.372	0.100
340.200	-0.473	0.100
340.300	10.382	0.100
340.400	6.682	0.100
340.500	14.491	0.100
340.600	2.167	0.100
340.700	8.380	0.100
340.800	-0.614	0.100
340.900	10.205	0.100
341.000	13.356	0.100
341.100	6.419	0.100
341.200	13.856	0.100
341.300	5.734	0.100
341.400	-6.162	0.100
341.500	-6.517	0.100
341.600	-3.812	0.100
341.700	15.349	0.100
341.800	-2.864	0.100
341.900	-1.886	0.100
342.000	6.621	0.100
342.100	6.384	0.100
342.200	20.159	0.100
342.300	12.683	0.100
342.400	3.929	0.100
342.500	17.080	0.100
342.600	5.394	0.100
342.700	12.693	0.100
342.800	5.538	0.100
342.900	2.837	0.100
343.000	6.569	0.100
343.100	2.292	0.100
343.200	6.262	0.100
343.300	0.633	0.100
343.400	22.033	0.100
343.500	1.521	0.100
343.600	14.517	0.100
343.700	10.298	0.100
343.800	7.923	0.100
343.900	7.265	0.100
344.000	12.081	0.100
344.100	21.199	0.100
344.200	14.373	0.100
344.300	-5.876	0.100
344.400	9.127	0.100
344.500	16.069	0.100
344.600	6.959	0.100
344.700	5.233	0.100
344.800	16.190	0.100
344.900	23.770	0.100
345.000	-7.816	0.100
345.100	2.424	0.100
345.200	11.667	0.100
345.300	20.082	0.100
345.400	12.881	0.100
345.500	8.720	0.100
345.600	17.802	0.100
345.700	7.671	0.100
345.800	-2.791	0.100
345.900	3.887	0.100
346.000	10.722	0.100
346.100	16.014	0.100
346.200	11.075	0.100
346.300	10.911	0.100
346.400	15.104	0.100
346.500	14.112	0.100
346.600	13.907	0.100
346.700	-0.181	0.100
346.800	4.718	0.100
346.900	14.373	0.100
347.000	23.742	0.100
347.100	13.387	0.100
347.200	-7.280	0.100
347.300	16.969	0.100
347.400	-0.474	0.100
347.500	-2.812	0.100
347.600	19.339	0.100
347.700	14.858	0.100
347.800	16.194	0.100
347.900	14.397	0.100
348.000	27.690	0.100
348.100	12.477	0.100
348.200	7.485	0.100
348.300	-2.057	0.100
348.400	12.297	0.100
348.500	23.089	0.100
348.600	-2.951	0.100
348.700	5.030	0.100
348.800	8.377	0.100
348.900	6.174	0.100
349.000	22.810	0.100
349.100	10.804	0.100
349.200	37.389	0.100
349.300	14.594	0.100
349.400	-0.692	0.100
349.500	4.897	0.100
349.600	15.584	0.100
349.700	8.577	0.100
349.800	22.326	0.100
349.900	7.109	0.100
350.000	13.030	0.100
350.100	9.389	0.100
350.200	16.535	0.100
350.300	13.943	0.100
350.400	8.539	0.100
350.500	11.378	0.100
350.600	11.678	0.100
350.700	5.619	0.100
350.800	19.042	0.100
350.900	12.206	0.100
351.000	14.286	0.100
351.100	14.341	0.100
351.200	13.461	0.100
351.300	4.606	0.100
351.400	14.074	0.100
351.500	2.463	0.100
351.600	19.601	0.100
351.700	7.707	0.100
351.800	11.171	0.100
351.900	4.043	0.100
352.000	23.768	0.100
352.100	7.911	0.100
352.200	8.034	0.100
352.300	2.426	0.100
352.400	4.309	0.100
352.500	12.730	0.100
352.600	10.850	0.100
352.700	16.032	0.100
352.800	2.839	0.100
352.900	-0.993	0.100
353.000	5.433	0.100
353.100	13.221	0.100
353.200	7.021	0.100
353.300	7.777	0.100
353.400	11.069	0.100
353.500	8.055	0.100
353.600	9.391	0.100
353.700	35.967	0.100
353.800	22.908	0.100
353.900	9.011	0.100
354.000	16.292	0.100
354.100	18.325	0.100
354.200	9.519	0.100
354.300	17.089	0.100
354.400	8.344	0.100
354.500	12.700	0.100
354.600	3.474	0.100
354.700	5.614	0.100
354.800	7.602	0.100
354.900	6.880	0.100
355.000	4.043	0.100
355.100	10.801	0.100
355.200	7.941	0.100
355.300	19.260	0.100
355.400	3.820	0.100
355.500	20.044	0.100
355.600	2.794	0.100
355.700	7.688	0.100
355.800	10.285	0.100
355.900	19.567	0.100
356.000	9.758	0.100
356.100	6.862	0.100
356.200	15.086	0.100
356.300	3.306	0.100
356.400	13.385	0.100
356.500	12.855	0.100
356.600	11.810	0.100
356.700	5.181	0.100
356.800	18.134	0.100
356.900	3.701	0.100
357.000	6.066	0.100
357.100	16.397	0.100
357.200	0.026	0.100
357.300	11.965	0.100
357.400	12.053	0.100
357.500	23.337	0.100
357.600	3.449	0.100
357.700	17.493	0.100
357.800	14.883	0.100
357.900	3.272	0.100
358.000	24.754	0.100
358.100	17.945	0.100
358.200	12.151	0.100
358.300	13.776	0.100
358.400	17.230	0.100
358.500	1.419	0.100
358.600	3.244	0.100
358.700	18.752	0.100
358.800	21.999	0.100
358.900	2.429	0.100
359.000	6.874	0.100
359.100	14.732	0.100
359.200	13.016	0.100
359.300	12.135	0.100
359.400	12.081	0.100
359.500	8.670	0.100
359.600	16.864	0.100
359.700	3.170	0.100
359.800	17.859	0.100
359.900	5.122	0.100
360.000	14.045	0.100
360.100	16.310	0.100
360.200	6.849	0.100
360.300	10.263	0.100
360.400	17.888	0.100
360.500	11.598	0.100
360.600	13.695	0.100
360.700	11.662	0.100
360.800	12.786	0.100
360.900	-3.329	0.100
361.000	-3.811	0.100
361.100	12.679	0.100
361.200	11.176	0.100
361.300	10.349	0.100
361.400	13.004	0.100
361.500	11.587	0.100
361.600	9.375	0.100
361.700	19.609	0.100
361.800	7.992	0.100
361.900	12.298	0.100
362.000	-6.919	0.100
362.100	9.565	0.100
362.200	3.650	0.100
362.300	11.088	0.100
362.400	12.640	0.100
362.500	19.916	0.100
362.600	8.935	0.100
362.700	0.058	0.100
362.800	13.299	0.100
362.900	15.969	0.100
363.000	15.463	0.100
363.100	9.938	0.100
363.200	6.729	0.100
363.300	22.210	0.100
363.400	25.671	0.100
363.500	9.882	0.100
363.600	7.274	0.100
363.700	-0.872	0.100
363.800	9.952	0.100
363.900	23.758	0.100
364.000	2.732	0.100
364.100	9.174	0.100
364.200	20.127	0.100
364.300	25.128	0.100
364.400	4.324	0.100
364.500	3.898	0.100
364.600	11.641	0.100
364.700	15.684	0.100
364.800	12.258	0.100
364.900	12.696	0.100
365.000	14.949	0.100
365.100	4.879	0.100
365.200	11.879	0.100
365.300	-0.121	0.100
365.400	18.924	0.100
365.500	20.677	0.100
365.600	6.526	0.100
365.700	6.126	0.100
365.800	21.936	0.100
365.900	11.894	0.100
366.000	-1.047	0.100
366.100	18.482	0.100
366.200	17.832	0.100
366.300	11.281	0.100
366.400	7.224	0.100
366.500	4.715	0.100
366.600	-8.444	0.100
366.700	18.943	0.100
366.800	22.161	0.100
366.900	16.562	0.100
367.000	12.205	0.100
367.100	16.138	0.100
367.200	12.415	0.100
367.300	-1.685	0.100
367.400	22.017	0.100
367.500	17.831	0.100
367.600	13.419	0.100
367.700	2.724	0.100
367.800	-8.511	0.100
367.900	8.168	0.100
368.000	11.548	0.100
368.100	20.238	0.100
368.200	7.318	0.100
368.300	0.515	0.100
368.400	10.481	0.100
368.500	5.165	0.100
368.600	11.748	0.100
368.700	14.435	0.100
368.800	2.421	0.100
368.900	-0.704	0.100
369.000	31.360	0.100
369.100	12.844	0.100
369.200	15.743	0.100
369.300	14.505	0.100
369.400	15.054	0.100
369.500	-1.032	0.100
369.600	0.992	0.100
369.700	20.377	0.100
369.800	5.487	0.100
369.900	-2.458	0.100
370.000	-4.687	0.100
370.100	18.734	0.100
370.200	22.867	0.100
370.300	18.264	0.100
370.400	9.024	0.100
370.500	13.890	0.100
370.600	-0.315	0.100
370.700	-1.053	0.100
370.800	1.162	0.100
370.900	8.662	0.100
371.000	17.991	0.100
371.100	22.470	0.100
371.200	3.031	0.100
371.300	8.555	0.100
371.400	17.715	0.100
371.500	8.626	0.100
371.600	8.305	0.100
371.700	10.396	0.100
371.800	8.806	0.100
371.900	9.268	0.100
372.000	1.880	0.100
372.100	14.534	0.100
372.200	-0.015	0.100
372.300	9.436	0.100
372.400	27.174	0.100
372.500	16.511	0.100
372.600	3.341	0.100
372.700	7.377	0.100
372.800	2.100	0.100
372.900	18.360	0.100
373.000	9.511	0.100
373.100	15.800	0.100
373.200	10.295	0.100
373.300	22.991	0.100
373.400	7.713	0.100
373.500	16.437	0.100
373.600	-1.842	0.100
373.700	6.352	0.100
373.800	18.452	0.100
373.900	6.689	0.100
374.000	20.158	0.100
374.100	14.062	0.100
374.200	0.541	0.100
374.300	19.557	0.100
374.400	4.275	0.100
374.500	9.846	0.100
374.600	14.681	0.100
374.700	3.990	0.100
374.800	2.691	0.100
374.900	12.655	0.100
375.000	0.030	0.100
375.100	10.496	0.100
375.200	7.373	0.100
375.300	11.282	0.100
375.400	16.043	0.100
375.500	0.891	0.100
375.600	5.015	0.100
375.700	8.900	0.100
375.800	18.733	0.100
375.900	2.232	0.100
376.000	4.348	0.100
376.100	9.818	0.100
376.200	25.910	0.100
376.300	17.577	0.100
376.400	7.070	0.100
376.500	7.943	0.100
376.600	9.680	0.100
376.700	3.663	0.100
376.800	12.341	0.100
376.900	2.934	0.100
377.000	19.446	0.100
377.100	6.506	0.100
377.200	16.895	0.100
377.300	13.752	0.100
377.400	-12.481	0.100
377.500	11.717	0.100
377.600	29.263	0.100
377.700	18.359	0.100
377.800	9.749	0.100
377.900	-7.504	0.100
378.000	12.491	0.100
378.100	11.629	0.100
378.200	7.540	0.100
378.300	-0.138	0.100
378.400	1.585	0.100
378.500	5.551	0.100
378.600	10.612	0.100
378.700	19.453	0.100
378.800	13.457	0.100
378.900	-0.241	0.100
379.000	-0.085	0.100
379.100	16.806	0.100
379.200	8.224	0.100
379.300	2.721	0.100
379.400	9.783	0.100
379.500	-13.628	0.100
379.600	18.908	0.100
379.700	10.026	0.100
379.800	-11.207	0.100
379.900	13.340	0.100
380.000	9.629	0.100
380.100	9.872	0.100
380.200	8.087	0.100
380.300	4.092	0.100
380.400	12.277	0.100
380.500	1.811	0.100
380.600	14.002	0.100
380.700	16.387	0.100
380.800	12.005	0.100
380.900	11.440	0.100
381.000	11.667	0.100
381.100	1.118	0.100
381.200	11.756	0.100
381.300	19.892	0.100
381.400	13.245	0.100
381.500	10.224	0.100
381.600	3.715	0.100
381.700	17.146	0.100
381.800	8.062	0.100
381.900	1.076	0.100
382.000	-6.401	0.100
382.100	9.029	0.100
382.200	4.964	0.100
382.300	8.999	0.100
382.400	7.329	0.100
382.500	1.277	0.100
382.600	11.091	0.100
382.700	9.010	0.100
382.800	7.597	0.100
382.900	-0.955	0.100
383.000	13.043	0.100
383.100	11.152	0.100
383.200	9.688	0.100
383.300	9.305	0.100
383.400	1.117	0.100
383.500	10.178	0.100
383.600	11.238	0.100
383.700	8.560	0.100
383.800	16.730	0.100
383.900	8.309	0.100
384.000	-6.602	0.100
384.100	6.622	0.100
384.200	10.026	0.100
384.300	10.113	0.100
384.400	20.388	0.100
384.500	0.598	0.100
384.600	13.700	0.100
384.700	11.038	0.100
384.800	2.575	0.100
384.900	12.488	0.100
385.000	4.298	0.100
385.100	16.215	0.100
385.200	12.426	0.100
385.300	17.097	0.100
385.400	0.542	0.100
385.500	5.730	0.100
385.600	21.835	0.100
385.700	15.453	0.100
385.800	21.672	0.100
385.900	12.320	0.100
386.000	-6.691	0.100
386.100	15.969	0.100
386.200	11.989	0.100
386.300	13.196	0.100
386.400	6.025	0.100
386.500	7.196	0.100
386.600	-8.813	0.100
386.700	6.491	0.100
386.800	10.291	0.100
386.900	3.364	0.100
387.000	18.199	0.100
387.100	19.842	0.100
387.200	19.419	0.100
387.300	-1.767	0.100
387.400	2.939	0.100
387.500	6.450	0.100
387.600	14.515	0.100
387.700	10.372	0.100
387.800	2.038	0.100
387.900	-1.516	0.100
388.000	3.523	0.100
388.100	-2.139	0.100
388.200	17.368	0.100
388.300	21.212	0.100
388.400	17.054	0.100
388.500	29.375	0.100
388.600	8.551	0.100
388.700	11.250	0.100
388.800	15.139	0.100
388.900	-0.313	0.100
389.000	8.551	0.100
389.100	25.620	0.100
389.200	17.122	0.100
389.300	8.228	0.100
389.400	14.488	0.100
389.500	11.246	0.100
389.600	15.288	0.100
389.700	4.904	0.100
389.800	-3.594	0.100
389.900	-6.772	0.100
390.000	15.820	0.100
390.100	-5.125	0.100
390.200	12.478	0.100
390.300	18.142	0.100
390.400	10.215	0.100
390.500	3.612	0.100
390.600	-10.666	0.100
390.700	3.263	0.100
390.800	-6.658	0.100
390.900	0.359	0.100
391.000	-0.681	0.100
391.100	-4.453	0.100
391.200	-6.279	0.100
391.300	-3.604	0.100
391.400	-13.501	0.100
391.500	-1.219	0.100
391.600	-24.680	0.100
391.700	-7.875	0.100
391.800	-7.709	0.100
391.900	-22.951	0.100
392.000	-7.825	0.100
392.100	-21.960	0.100
392.200	-19.425	0.100
392.300	-15.307	0.100
392.400	-23.180	0.100
392.500	-23.565	0.100
392.600	-22.217	0.100
392.700	-22.042	0.100
392.800	-19.703	0.100
392.900	-14.219	0.100
393.000	-21.350	0.100
393.100	-16.157	0.100
393.200	-18.572	0.100
393.300	-20.516	0.100
393.400	-30.009	0.100
393.500	-17.618	0.100
393.600	-19.335	0.100
393.700	-11.496	0.100
393.800	-16.180	0.100
393.900	-1.239	0.100
394.000	-4.780	0.100
394.100	-8.713	0.100
394.200	-16.766	0.100
394.300	-18.932	0.100
394.400	-11.466	0.100
394.500	-10.744	0.100
394.600	-21.828	0.100
394.700	-12.017	0.100
394.800	-13.987	0.100
394.900	-20.979	0.100
395.000	-20.632	0.100
395.100	-15.308	0.100
395.200	-12.989	0.100
395.300	-23.908	0.100
395.400	-17.173	0.100
395.500	-4.987	0.100
395.600	-13.410	0.100
395.700	-10.702	0.100
395.800	-21.286	0.100
395.900	-0.751	0.100
396.000	-20.940	0.100
396.100	-7.378	0.100
396.200	-3.352	0.100
396.300	-21.472	0.100
396.400	-11.567	0.100
396.500	-8.372	0.100
396.600	-14.349	0.100
396.700	-13.350	0.100
396.800	-16.549	0.100
396.900	-15.841	0.100
397.000	-0.895	0.100
397.100	-19.106	0.100
397.200	-17.654	0.100
397.300	-15.983	0.100
397.400	-11.318	0.100
397.500	-3.067	0.100
397.600	-16.800	0.100
397.700	-16.982	0.100
397.800	-10.729	0.100
397.900	-8.644	0.100
398.000	-8.892	0.100
398.100	-10.375	0.100
398.200	-9.734	0.100
398.300	-19.705	0.100
398.400	-11.692	0.100
398.500	-14.403	0.100
398.600	-1.859	0.100
398.700	-22.128	0.100
398.800	-10.570	0.100
398.900	-11.529	0.100
399.000	-9.331	0.100
399.100	-19.928	0.100
399.200	-23.485	0.100
399.300	-19.794	0.100
399.400	-10.177	0.100
399.500	-22.590	0.100
399.600	-3.899	0.100
399.700	-4.518	0.100
399.800	3.869	0.100
399.900	-29.530	0.100
400.000	-10.271	0.100
400.100	-13.465	0.100
400.200	-21.941	0.100
400.300	-7.409	0.100
400.400	-5.927	0.100
400.500	-10.316	0.100
400.600	-8.581	0.100
400.700	-10.805	0.100
400.800	-19.460	0.100
400.900	-12.537	0.100
401.000	-6.536	0.100
401.100	-13.444	0.100
401.200	-18.226	0.100
401.300	-6.915	0.100
401.400	-17.656	0.100
401.500	-13.424	0.100
401.600	-12.608	0.100
401.700	-7.253	0.100
401.800	0.060	0.100
401.900	-2.286	0.100
402.000	-15.464	0.100
402.100	-5.302	0.100
402.200	-10.888	0.100
402.300	-19.143	0.100
402.400	-18.151	0.100
402.500	-5.158	0.100
402.600	-10.157	0.100
402.700	-7.047	0.100
402.800	-12.833	0.100
402.900	-4.766	0.100
403.000	-14.513	0.100
403.100	-10.565	0.100
403.200	-1.003	0.100
403.300	-10.905	0.100
403.400	-24.119	0.100
403.500	-3.029	0.100
403.600	0.086	0.100
403.700	-12.572	0.100
403.800	-7.981	0.100
403.900	-2.354	0.100
404.000	-15.999	0.100
404.100	-14.807	0.100
404.200	-16.893	0.100
404.300	-24.527	0.100
404.400	0.316	0.100
404.500	-12.011	0.100
404.600	-5.226	0.100
404.700	-27.966	0.100
404.800	-9.409	0.100
404.900	-7.832	0.100
405.000	-24.759	0.100
405.100	-12.772	0.100
405.200	-2.941	0.100
405.300	-13.778	0.100
405.400	-17.654	0.100
405.500	-5.642	0.100
405.600	-8.591	0.100
405.700	-3.158	0.100
405.800	-16.651	0.100
405.900	-17.871	0.100
406.000	-19.503	0.100
406.100	-17.883	0.100
406.200	-2.811	0.100
406.300	-3.185	0.100
406.400	-13.091	0.100
406.500	-1.888	0.100
406.600	-2.199	0.100
406.700	-11.037	0.100
406.800	-14.070	0.100
406.900	-10.751	0.100
407.000	-5.135	0.100
407.100	-9.156	0.100
407.200	-11.251	0.100
407.300	-3.945	0.100
407.400	-13.387	0.100
407.500	-23.748	0.100
407.600	-4.675	0.100
407.700	-9.655	0.100
407.800	-3.870	0.100
407.900	-2.184	0.100
408.000	-8.583	0.100
408.100	-9.399	0.100
408.200	-8.312	0.100
408.300	-2.572	0.100
408.400	-0.462	0.100
408.500	-8.170	0.100
408.600	-5.609	0.100
408.700	-8.243	0.100
408.800	-14.669	0.100
408.900	-11.169	0.100
409.000	-6.471	0.100
409.100	-8.233	0.100
409.200	-13.079	0.100
409.300	-8.386	0.100
409.400	3.791	0.100
409.500	-2.314	0.100
409.600	-26.379	0.100
409.700	-11.425	0.100
409.800	-5.890	0.100
409.900	-11.174	0.100
410.000	-14.791	0.100
410.100	-6.883	0.100
410.200	-5.443	0.100
410.300	-9.368	0.100
410.400	-2.689	0.100
410.500	-9.431	0.100
410.600	-23.051	0.100
410.700	-6.464	0.100
410.800	-12.740	0.100
410.900	-14.448	0.100
411.000	-13.395	0.100
411.100	-6.245	0.100
411.200	-5.041	0.100
411.300	-5.822	0.100
411.400	-10.546	0.100
411.500	-4.417	0.100
411.600	-12.894	0.100
411.700	-26.680	0.100
411.800	-15.415	0.100
411.900	-3.123	0.100
412.000	-21.076	0.100
412.100	-14.633	0.100
412.200	-13.306	0.100
412.300	-9.812	0.100
412.400	-18.087	0.100
412.500	-11.460	0.100
412.600	3.550	0.100
412.700	-3.198	0.100
412.800	-16.440	0.100
412.900	-6.605	0.100
413.000	-12.152	0.100
413.100	-10.174	0.100
413.200	-29.087	0.100
413.300	-2.897	0.100
413.400	-14.289	0.100
413.500	-19.018	0.100
413.600	-3.244	0.100
413.700	-0.709	0.100
413.800	-5.842	0.100
413.900	-12.590	0.100
414.000	-12.763	0.100
414.100	-5.645	0.100
414.200	-17.520	0.100
414.300	-11.122	0.100
414.400	-7.602	0.100
414.500	-8.234	0.100
414.600	-12.046	0.100
414.700	-20.596	0.100
414.800	-4.876	0.100
414.900	-0.185	0.100
415.000	-5.058	0.100
415.100	0.437	0.100
415.200	0.274	0.100
415.300	-2.956	0.100
415.400	-9.346	0.100
415.500	-1.558	0.100
415.600	-17.949	0.100
415.700	-19.457	0.100
415.800	-2.605	0.100
415.900	-2.744	0.100
416.000	-14.498	0.100
416.100	-7.300	0.100
416.200	2.724	0.100
416.300	-19.753	0.100
416.400	-17.583	0.100
416.500	-15.547	0.100
416.600	-10.033	0.100
416.700	-6.454	0.100
416.800	0.406	0.100
416.900	-12.003	0.100
417.000	-12.599	0.100
417.100	-17.924	0.100
417.200	-21.300	0.100
417.300	-16.319	0.100
417.400	-5.881	0.100
417.500	-8.696	0.100
417.600	-8.765	0.100
417.700	-5.480	0.100
417.800	-14.138	0.100
417.900	-1.614	0.100
418.000	-14.048	0.100
418.100	-11.508	0.100
418.200	-15.314	0.100
418.300	-2.324	0.100
418.400	-2.233	0.100
418.500	-18.705	0.100
418.600	-9.897	0.100
418.700	-8.306	0.100
418.800	-9.331	0.100
418.900	-16.873	0.100
419.000	-19.608	0.100
419.100	-5.954	0.100
419.200	-7.978	0.100
419.300	-12.503	0.100
419.400	-3.715	0.100
419.500	-10.962	0.100
419.600	-8.975	0.100
419.700	-11.298	0.100
419.800	-5.915	0.100
419.900	-6.474	0.100
420.000	-24.050	0.100
420.100	-12.718	0.100
420.200	1.408	0.100
420.300	-8.268	0.100
420.400	-8.528	0.100
420.500	-17.767	0.100
420.600	-9.225	0.100
420.700	-0.941	0.100
420.800	-8.144	0.100
420.900	0.932	0.100
421.000	-9.224	0.100
421.100	-1.044	0.100
421.200	-9.761	0.100
421.300	1.368	0.100
421.400	1.083	0.100
421.500	-12.230	0.100
421.600	-32.209	0.100
421.700	-10.260	0.100
421.800	1.675	0.100
421.900	-5.576	0.100
422.000	-1.914	0.100
422.100	-4.263	0.100
422.200	-22.641	0.100
422.300	-8.657	0.100
422.400	-6.645	0.100
422.500	-15.100	0.100
422.600	17.756	0.100
422.700	-2.182	0.100
422.800	-8.581	0.100
422.900	-12.809	0.100
423.000	-0.731	0.100
423.100	-14.154	0.100
423.200	-1.977	0.100
423.300	-14.586	0.100
423.400	-7.669	0.100
423.500	-15.444	0.100
423.600	1.261	0.100
423.700	-13.081	0.100
423.800	-10.639	0.100
423.900	-16.460	0.100
424.000	-11.426	0.100
424.100	-11.439	0.100
424.200	-13.945	0.100
424.300	-25.791	0.100
424.400	-12.420	0.100
424.500	1.083	0.100
424.600	-5.888	0.100
424.700	-5.032	0.100
424.800	-15.089	0.100
424.900	-1.748	0.100
425.000	-0.305	0.100
425.100	-1.451	0.100
425.200	-20.080	0.100
425.300	-17.125	0.100
425.400	-5.722	0.100
425.500	-1.827	0.100
425.600	-20.243	0.100
425.700	-15.299	0.100
425.800	-14.371	0.100
425.900	-3.915	0.100
426.000	-3.836	0.100
426.100	-4.956	0.100
426.200	-9.830	0.100
426.300	-5.372	0.100
426.400	-18.445	0.100
426.500	-22.686	0.100
426.600	-10.783	0.100
426.700	-25.361	0.100
426.800	-3.904	0.100
426.900	-0.960	0.100
427.000	-3.233	0.100
427.100	-22.511	0.100
427.200	-4.965	0.100
427.300	-8.903	0.100
427.400	-7.283	0.100
427.500	-5.134	0.100
427.600	-14.881	0.100
427.700	-6.792	0.100
427.800	4.243	0.100
427.900	-20.061	0.100
428.000	-22.371	0.100
428.100	-1.240	0.100
428.200	-7.148	0.100
428.300	-12.629	0.100
428.400	-4.700	0.100
428.500	-11.193	0.100
428.600	-4.630	0.100
428.700	-8.677	0.100
428.800	-17.063	0.100
428.900	-5.829	0.100
429.000	-10.228	0.100
429.100	-8.970	0.100
429.200	1.611	0.100
429.300	-16.035	0.100
429.400	-25.741	0.100
429.500	-12.816	0.100
429.600	-3.718	0.100
429.700	-8.136	0.100
429.800	-14.946	0.100
429.900	-4.889	0.100
430.000	3.008	0.100
430.100	-7.884	0.100
430.200	-4.264	0.100
430.300	-3.905	0.100
430.400	-10.262	0.100
430.500	-6.075	0.100
430.600	-9.384	0.100
430.700	-12.986	0.100
430.800	-6.214	0.100
430.900	-11.198	0.100
431.000	-16.113	0.100
431.100	-14.579	0.100
431.200	-8.279	0.100
431.300	-9.205	0.100
431.400	-19.959	0.100
431.500	-20.564	0.100
431.600	-9.637	0.100
431.700	-11.726	0.100
431.800	5.098	0.100
431.900	-6.509	0.100
432.000	0.140	0.100
432.100	-2.519	0.100
432.200	-6.144	0.100
432.300	-7.728	0.100
432.400	-23.566	0.100
432.500	-1.603	0.100
432.600	-14.276	0.100
432.700	-9.897	0.100
432.800	-5.447	0.100
432.900	-14.456	0.100
433.000	-15.092	0.100
433.100	-6.188	0.100
433.200	-18.330	0.100
433.300	-23.617	0.100
433.400	-16.349	0.100
433.500	-10.740	0.100
433.600	4.195	0.100
433.700	-2.591	0.100
433.800	-4.833	0.100
433.900	-4.103	0.100
434.000	-9.905	0.100
434.100	-5.740	0.100
434.200	3.754	0.100
434.300	-14.897	0.100
434.400	-16.033	0.100
434.500	1.207	0.100
434.600	1.063	0.100
434.700	-10.785	0.100
434.800	-1.634	0.100
434.900	-11.845	0.100
435.000	-16.489	0.100
435.100	-16.647	0.100
435.200	3.112	0.100
435.300	-2.829	0.100
435.400	-7.657	0.100
435.500	0.084	0.100
435.600	-19.796	0.100
435.700	-3.911	0.100
435.800	-23.737	0.100
435.900	-8.452	0.100
436.000	0.399	0.100
436.100	-9.847	0.100
436.200	-8.055	0.100
436.300	-19.379	0.100
436.400	-12.419	0.100
436.500	-13.617	0.100
436.600	-8.922	0.100
436.700	-10.312	0.100
436.800	-6.430	0.100
436.900	-13.059	0.100
437.000	-15.428	0.100
437.100	5.572	0.100
437.200	-4.417	0.100
437.300	-7.423	0.100
437.400	-1.425	0.100
437.500	-4.003	0.100
437.600	-8.625	0.100
437.700	-17.479	0.100
437.800	-3.487	0.100
437.900	-2.050	0.100
438.000	-8.958	0.100
438.100	-6.750	0.100
438.200	-5.636	0.100
438.300	-9.505	0.100
438.400	-13.785	0.100
438.500	-2.363	0.100
438.600	-12.223	0.100
438.700	5.840	0.100
438.800	-9.399	0.100
438.900	-9.520	0.100
439.000	-13.132	0.100
439.100	-8.332	0.100
439.200	-15.160	0.100
439.300	-8.304	0.100
439.400	-3.643	0.100
439.500	-23.343	0.100
439.600	-13.614	0.100
439.700	-3.007	0.100
439.800	3.369	0.100
439.900	-12.994	0.100
440.000	-5.312	0.100
440.100	-9.474	0.100
440.200	-11.044	0.100
440.300	9.532	0.100
440.400	-3.063	0.100
440.500	-14.141	0.100
440.600	-7.956	0.100
440.700	-9.242	0.100
440.800	-15.240	0.100
440.900	-8.106	0.100
441.000	-3.480	0.100
441.100	-8.600	0.100
441.200	-6.590	0.100
441.300	-10.043	0.100
441.400	-17.317	0.100
441.500	-27.775	0.100
441.600	0.519	0.100
441.700	6.458	0.100
441.800	2.842	0.100
441.900	-13.045	0.100
442.000	-11.581	0.100
442.100	-1.256	0.100
442.200	-15.690	0.100
442.300	-9.894	0.100
442.400	-1.112	0.100
442.500	-13.929	0.100
442.600	-13.454	0.100
442.700	3.398	0.100
442.800	-8.340	0.100
442.900	-13.011	0.100
443.000	5.640	0.100
443.100	1.915	0.100
443.200	-7.411	0.100
443.300	-31.810	0.100
443.400	-18.138	0.100
443.500	-13.833	0.100
443.600	-2.629	0.100
443.700	-12.937	0.100
443.800	-4.108	0.100
443.900	-12.245	0.100
444.000	-17.879	0.100
444.100	-13.858	0.100
444.200	-15.700	0.100
444.300	-4.589	0.100
444.400	-8.611	0.100
444.500	-2.582	0.100
444.600	-3.647	0.100
444.700	-10.051	0.100
444.800	-4.822	0.100
444.900	-7.683	0.100
445.000	0.469	0.100
445.100	-14.049	0.100
445.200	1.539	0.100
445.300	-7.008	0.100
445.400	-4.979	0.100
445.500	-6.102	0.100
445.600	-2.176	0.100
445.700	-3.609	0.100
445.800	-10.563	0.100
445.900	-6.717	0.100
446.000	-3.680	0.100
446.100	-8.390	0.100
446.200	-13.388	0.100
446.300	-15.633	0.100
446.400	-14.969	0.100
446.500	0.124	0.100
446.600	4.039	0.100
446.700	-9.494	0.100
446.800	-18.842	0.100
446.900	-12.207	0.100
447.000	-5.866	0.100
447.100	-10.444	0.100
447.200	-9.201	0.100
447.300	0.520	0.100
447.400	4.960	0.100
447.500	-13.420	0.100
447.600	-4.433	0.100
447.700	0.404	0.100
447.800	-10.525	0.100
447.900	-13.218	0.100
448.000	-10.921	0.100
448.100	-12.311	0.100
448.200	-10.723	0.100
448.300	-11.030	0.100
448.400	-6.545	0.100
448.500	-3.244	0.100
448.600	-3.282	0.100
448.700	-5.244	0.100
448.800	-4.553	0.100
448.900	-10.482	0.100
449.000	4.675	0.100
449.100	-12.535	0.100
449.200	-7.994	0.100
449.300	-3.936	0.100
449.400	-2.407	0.100
449.500	-14.474	0.100
449.600	-0.793	0.100
449.700	-13.756	0.100
449.800	-15.865	0.100
449.900	-4.928	0.100
450.000	-0.878	0.100
450.100	-3.884	0.100
450.200	-4.492	0.100
450.300	-1.862	0.100
450.400	-19.095	0.100
450.500	-2.180	0.100
450.600	-11.698	0.100
450.700	-14.101	0.100
450.800	0.906	0.100
450.900	-1.497	0.100
451.000	-1.635	0.100
451.100	-19.038	0.100
451.200	-10.104	0.100
451.300	-2.881	0.100
451.400	3.709	0.100
451.500	-21.099	0.100
451.600	-16.173	0.100
451.700	-28.643	0.100
451.800	-11.314	0.100
451.900	-16.682	0.100
452.000	-7.687	0.100
452.100	-7.268	0.100
452.200	3.355	0.100
452.300	-22.563	0.100
452.400	-8.155	0.100
452.500	-1.692	0.100
452.600	3.516	0.100
452.700	-4.553	0.100
452.800	3.268	0.100
452.900	-7.759	0.100
453.000	-17.235	0.100
453.100	-0.957	0.100
453.200	1.640	0.100
453.300	-12.853	0.100
453.400	-9.510	0.100
453.500	0.836	0.100
453.600	-7.760	0.100
453.700	-20.016	0.100
453.800	-5.176	0.100
453.900	6.730	0.100
454.000	-5.094	0.100
454.100	11.677	0.100
454.200	-3.601	0.100
454.300	-16.361	0.100
454.400	-19.611	0.100
454.500	-12.174	0.100
454.600	-15.020	0.100
454.700	0.503	0.100
454.800	2.380	0.100
454.900	-7.155	0.100
455.000	-0.872	0.100
455.100	-11.454	0.100
455.200	-12.458	0.100
455.300	-6.849	0.100
455.400	-6.803	0.100
455.500	-20.246	0.100
455.600	-9.963	0.100
455.700	-11.201	0.100
455.800	-0.722	0.100
455.900	-5.212	0.100
456.000	6.872	0.100
456.100	-0.116	0.100
456.200	-11.164	0.100
456.300	-12.664	0.100
456.400	-2.371	0.100
456.500	-11.899	0.100
456.600	-13.004	0.100
456.700	-4.618	0.100
456.800	-2.176	0.100
456.900	-6.851	0.100
457.000	-7.745	0.100
457.100	-16.351	0.100
457.200	-12.352	0.100
457.300	0.775	0.100
457.400	-12.082	0.100
457.500	0.166	0.100
457.600	-6.232	0.100
457.700	-10.087	0.100
457.800	-10.479	0.100
457.900	-19.198	0.100
458.000	-2.860	0.100
458.100	-20.315	0.100
458.200	9.474	0.100
458.300	-3.362	0.100
458.400	-6.649	0.100
458.500	-0.146	0.100
458.600	-11.967	0.100
458.700	-9.038	0.100
458.800	-21.000	0.100
458.900	-8.639	0.100
459.000	-8.615	0.100
459.100	-12.674	0.100
459.200	1.343	0.100
459.300	-1.403	0.100
459.400	-12.101	0.100
459.500	-7.285	0.100
459.600	-4.511	0.100
459.700	-7.468	0.100
459.800	-7.564	0.100
459.900	-5.872	0.100
460.000	-9.556	0.100
460.100	-9.547	0.100
460.200	-3.148	0.100
460.300	-9.500	0.100
460.400	-10.295	0.100
460.500	-11.592	0.100
460.600	-11.285	0.100
460.700	-2.033	0.100
460.800	-25.514	0.100
460.900	-12.786	0.100
461.000	-0.626	0.100
461.100	11.743	0.100
461.200	-1.695	0.100
461.300	-4.471	0.100
461.400	-30.024	0.100
461.500	-10.365	0.100
461.600	-9.812	0.100
461.700	-7.189	0.100
461.800	-6.100	0.100
461.900	-14.024	0.100
462.000	5.512	0.100
462.100	-17.602	0.100
462.200	-0.853	0.100
462.300	3.069	0.100
462.400	-17.195	0.100
462.500	2.460	0.100
462.600	-21.658	0.100
462.700	-6.846	0.100
462.800	-4.821	0.100
462.900	-14.202	0.100
463.000	-6.095	0.100
463.100	1.575	0.100
463.200	-1.999	0.100
463.300	-5.355	0.100
463.400	1.324	0.100
463.500	-9.580	0.100
463.600	-11.609	0.100
463.700	-11.561	0.100
463.800	-4.233	0.100
463.900	-11.975	0.100
464.000	-9.506	0.100
464.100	-2.045	0.100
464.200	-4.958	0.100
464.300	-6.730	0.100
464.400	-8.155	0.100
464.500	-20.358	0.100
464.600	-9.506	0.100
464.700	-7.516	0.100
464.800	-1.420	0.100
464.900	1.207	0.100
465.000	-4.875	0.100
465.100	0.770	0.100
465.200	-25.997	0.100
465.300	-7.133	0.100
465.400	-5.837	0.100
465.500	-1.707	0.100
465.600	-2.330	0.100
465.700	-7.595	0.100
465.800	-8.232	0.100
465.900	-10.437	0.100
466.000	-5.499	0.100
466.100	4.782	0.100
466.200	-14.797	0.100
466.300	-2.695	0.100
466.400	-5.667	0.100
466.500	-13.406	0.100
466.600	0.800	0.100
466.700	1.267	0.100
466.800	-15.785	0.100
466.900	-11.680	0.100
467.000	-3.403	0.100
467.100	-10.122	0.100
467.200	0.566	0.100
467.300	-5.440	0.100
467.400	-4.416	0.100
467.500	-0.955	0.100
467.600	-5.823	0.100
467.700	-1.282	0.100
467.800	-7.090	0.100
467.900	-5.422	0.100
468.000	0.598	0.100
468.100	-2.500	0.100
468.200	-7.358	0.100
468.300	-4.714	0.100
468.400	-1.217	0.100
468.500	-8.180	0.100
468.600	6.598	0.100
468.700	-9.072	0.100
468.800	-5.111	0.100
468.900	-8.810	0.100
469.000	-9.250	0.100
469.100	-8.207	0.100
469.200	3.313	0.100
469.300	3.571	0.100
469.400	-8.423	0.100
469.500	-17.914	0.100
469.600	-7.622	0.100
469.700	-23.413	0.100
469.800	-6.506	0.100
469.900	-6.929	0.100
470.000	2.255	0.100
470.100	5.209	0.100
470.200	-8.179	0.100
470.300	-9.113	0.100
470.400	-14.734	0.100
470.500	0.159	0.100
470.600	-11.596	0.100
470.700	-19.098	0.100
470.800	-10.116	0.100
470.900	14.051	0.100
471.000	-10.281	0.100
471.100	-6.027	0.100
471.200	-0.876	0.100
471.300	-1.620	0.100
471.400	2.510	0.100
471.500	-8.798	0.100
471.600	-18.977	0.100
471.700	-4.789	0.100
471.800	-6.552	0.100
471.900	-0.177	0.100
472.000	-16.661	0.100
472.100	-7.517	0.100
472.200	-4.946	0.100
472.300	-10.908	0.100
472.400	-7.300	0.100
472.500	-0.612	0.100
472.600	-11.503	0.100
472.700	-6.154	0.100
472.800	-5.396	0.100
472.900	-2.299	0.100
473.000	-8.188	0.100
473.100	-18.630	0.100
473.200	0.312	0.100
473.300	-12.637	0.100
473.400	-7.313	0.100
473.500	-9.507	0.100
473.600	0.765	0.100
473.700	0.574	0.100
473.800	-0.487	0.100
473.900	-18.735	0.100
474.000	0.814	0.100
474.100	3.859	0.100
474.200	-5.395	0.100
474.300	3.879	0.100
474.400	-14.149	0.100
474.500	-0.724	0.100
474.600	0.975	0.100
474.700	-4.661	0.100
474.800	-11.385	0.100
474.900	-13.727	0.100
475.000	-1.204	0.100
475.100	-1.967	0.100
475.200	-7.900	0.100
475.300	4.592	0.100
475.400	-11.238	0.100
475.500	-8.971	0.100
475.600	4.575	0.100
475.700	4.926	0.100
475.800	-6.294	0.100
475.900	-2.054	0.100
476.000	-15.215	0.100
476.100	-4.410	0.100
476.200	-13.579	0.100
476.300	-15.983	0.100
476.400	-0.343	0.100
476.500	-9.032	0.100
476.600	-5.156	0.100
476.700	-7.463	0.100
476.800	-20.318	0.100
476.900	-2.780	0.100
477.000	7.361	0.100
477.100	-5.441	0.100
477.200	-10.321	0.100
477.300	5.386	0.100
477.400	-9.908	0.100
477.500	-9.786	0.100
477.600	-25.571	0.100
477.700	-9.153	0.100
477.800	-0.147	0.100
477.900	2.038	0.100
478.000	-1.422	0.100
478.100	-15.282	0.100
478.200	-8.571	0.100
478.300	-9.119	0.100
478.400	-6.410	0.100
478.500	-8.926	0.100
478.600	-7.077	0.100
478.700	-1.913	0.100
478.800	-4.096	0.100
478.900	-7.557	0.100
479.000	-12.926	0.100
479.100	2.627	0.100
479.200	-12.625	0.100
479.300	-9.347	0.100
479.400	2.832	0.100
479.500	1.357	0.100
479.600	4.373	0.100
479.700	2.954	0.100
479.800	-2.286	0.100
479.900	-6.581	0.100
480.000	-1.591	0.100
480.100	3.314	0.100
480.200	6.846	0.100
480.300	-3.053	0.100
480.400	-4.973	0.100
480.500	16.185	0.100
480.600	6.249	0.100
480.700	14.238	0.100
480.800	20.050	0.100
480.900	15.122	0.100
481.000	12.358	0.100
481.100	18.951	0.100
481.200	22.555	0.100
481.300	16.688	0.100
481.400	19.102	0.100
481.500	19.149	0.100
481.600	4.124	0.100
481.700	19.134	0.100
481.800	16.598	0.100
481.900	8.172	0.100
482.000	10.862	0.100
482.100	17.785	0.100
482.200	18.027	0.100
482.300	-3.452	0.100
482.400	19.086	0.100
482.500	22.595	0.100
482.600	10.342	0.100
482.700	26.358	0.100
482.800	21.957	0.100
482.900	15.584	0.100
483.000	5.403	0.100
483.100	8.490	0.100
483.200	6.392	0.100
483.300	22.053	0.100
483.400	20.088	0.100
483.500	8.008	0.100
483.600	-0.987	0.100
483.700	19.927	0.100
483.800	16.037	0.100
483.900	7.523	0.100
484.000	-3.719	0.100
484.100	25.010	0.100
484.200	14.829	0.100
484.300	6.600	0.100
484.400	-1.095	0.100
484.500	12.544	0.100
484.600	-2.758	0.100
484.700	3.456	0.100
484.800	16.864	0.100
484.900	10.772	0.100
485.000	18.340	0.100
485.100	-4.507	0.100
485.200	1.717	0.100
485.300	13.007	0.100
485.400	9.651	0.100
485.500	7.230	0.100
485.600	7.863	0.100
485.700	10.298	0.100
485.800	0.912	0.100
485.900	1.180	0.100
486.000	11.452	0.100
486.100	1.239	0.100
486.200	7.254	0.100
486.300	18.928	0.100
486.400	2.736	0.100
486.500	7.283	0.100
486.600	10.083	0.100
486.700	6.676	0.100
486.800	12.697	0.100
486.900	8.005	0.100
487.000	8.688	0.100
487.100	6.697	0.100
487.200	14.844	0.100
487.300	3.766	0.100
487.400	17.040	0.100
487.500	9.487	0.100
487.600	3.719	0.100
487.700	1.514	0.100
487.800	9.594	0.100
487.900	12.348	0.100
488.000	4.109	0.100
488.100	4.081	0.100
488.200	-4.567	0.100
488.300	6.029	0.100
488.400	6.364	0.100
488.500	1.178	0.100
488.600	6.830	0.100
488.700	16.940	0.100
488.800	6.992	0.100
488.900	12.447	0.100
489.000	2.807	0.100
489.100	-5.332	0.100
489.200	9.675	0.100
489.300	6.200	0.100
489.400	3.073	0.100
489.500	0.419	0.100
489.600	-7.613	0.100
489.700	23.822	0.100
489.800	10.701	0.100
489.900	12.282	0.100
490.000	-1.574	0.100
490.100	8.931	0.100
490.200	-1.477	0.100
490.300	-2.983	0.100
490.400	12.248	0.100
490.500	7.794	0.100
490.600	6.299	0.100
490.700	2.465	0.100
490.800	13.927	0.100
490.900	4.266	0.100
491.000	12.227	0.100
491.100	6.271	0.100
491.200	0.129	0.100
491.300	7.836	0.100
491.400	14.022	0.100
491.500	-2.495	0.100
491.600	0.595	0.100
491.700	1.867	0.100
491.800	18.703	0.100
491.900	4.004	0.100
492.000	25.078	0.100
492.100	18.335	0.100
492.200	6.050	0.100
492.300	12.260	0.100
492.400	10.363	0.100
492.500	1.756	0.100
492.600	-0.747	0.100
492.700	22.119	0.100
492.800	-0.012	0.100
492.900	7.001	0.100
493.000	13.008	0.100
493.100	1.924	0.100
493.200	6.002	0.100
493.300	13.223	0.100
493.400	2.744	0.100
493.500	8.987	0.100
493.600	17.496	0.100
493.700	0.854	0.100
493.800	8.132	0.100
493.900	20.366	0.100
494.000	4.831	0.100
494.100	13.642	0.100
494.200	5.953	0.100
494.300	1.090	0.100
494.400	15.916	0.100
494.500	3.816	0.100
494.600	8.633	0.100
494.700	12.575	0.100
494.800	25.458	0.100
494.900	14.181	0.100
495.000	12.304	0.100
495.100	12.772	0.100
495.200	6.435	0.100
495.300	16.133	0.100
495.400	14.653	0.100
495.500	4.560	0.100
495.600	6.844	0.100
495.700	2.597	0.100
495.800	19.027	0.100
495.900	9.221	0.100
496.000	13.915	0.100
496.100	4.964	0.100
496.200	15.518	0.100
496.300	4.589	0.100
496.400	5.874	0.100
496.500	-10.972	0.100
496.600	15.427	0.100
496.700	22.146	0.100
496.800	19.982	0.100
496.900	2.197	0.100
497.000	1.656	0.100
497.100	10.411	0.100
497.200	16.446	0.100
497.300	34.755	0.100
497.400	16.475	0.100
497.500	5.721	0.100
497.600	10.291	0.100
497.700	23.906	0.100
497.800	8.117	0.100
497.900	20.164	0.100
498.000	16.301	0.100
498.100	23.678	0.100
498.200	8.374	0.100
498.300	13.970	0.100
498.400	0.881	0.100
498.500	8.974	0.100
498.600	18.579	0.100
498.700	10.018	0.100
498.800	16.738	0.100
498.900	10.894	0.100
499.000	3.393	0.100
499.100	6.076	0.100
499.200	16.899	0.100
499.300	18.803	0.100
499.400	9.455	0.100
499.500	16.950	0.100
499.600	29.229	0.100
499.700	21.092	0.100
499.800	12.490	0.100
499.900	19.233	0.100
500.000	6.985	0.100
500.100	0.654	0.100
500.200	5.434	0.100
500.300	3.826	0.100
500.400	19.882	0.100
500.500	5.126	0.100
500.600	16.049	0.100
500.700	20.579	0.100
500.800	7.225	0.100
500.900	29.882	0.100
501.000	6.006	0.100
501.100	21.126	0.100
501.200	16.236	0.100
501.300	18.685	0.100
501.400	13.242	0.100
501.500	22.087	0.100
501.600	11.330	0.100
501.700	4.543	0.100
501.800	1.691	0.100
501.900	4.506	0.100
502.000	31.805	0.100
502.100	26.841	0.100
502.200	8.521	0.100
502.300	-10.392	0.100
502.400	7.682	0.100
502.500	15.813	0.100
502.600	25.532	0.100
502.700	12.773	0.100
502.800	18.440	0.100
502.900	8.426	0.100
503.000	12.627	0.100
503.100	25.135	0.100
503.200	19.885	0.100
503.300	2.183	0.100
503.400	9.085	0.100
503.500	14.285	0.100
503.600	8.184	0.100
503.700	25.787	0.100
503.800	20.614	0.100
503.900	11.842	0.100
504.000	15.929	0.100
504.100	10.382	0.100
504.200	9.107	0.100
504.300	14.306	0.100
504.400	1.499	0.100
504.500	4.889	0.100
504.600	21.381	0.100
504.700	-0.447	0.100
504.800	30.500	0.100
504.900	13.966	0.100
505.000	1.548	0.100
505.100	1.812	0.100
505.200	18.197	0.100
505.300	20.775	0.100
505.400	-0.352	0.100
505.500	21.731	0.100
505.600	17.551	0.100
505.700	19.574	0.100
505.800	9.569	0.100
505.900	13.692	0.100
506.000	-1.579	0.100
506.100	18.897	0.100
506.200	9.720	0.100
506.300	14.813	0.100
506.400	10.615	0.100
506.500	9.295	0.100
506.600	23.446	0.100
506.700	10.079	0.100
506.800	13.249	0.100
506.900	25.078	0.100
507.000	22.407	0.100
507.100	9.376	0.100
507.200	14.881	0.100
507.300	17.401	0.100
507.400	4.341	0.100
507.500	0.971	0.100
507.600	17.827	0.100
507.700	14.010	0.100
507.800	8.358	0.100
507.900	10.718	0.100
508.000	13.559	0.100
508.100	19.373	0.100
508.200	10.677	0.100
508.300	14.153	0.100
508.400	17.216	0.100
508.500	5.039	0.100
508.600	14.606	0.100
508.700	3.938	0.100
508.800	8.792	0.100
508.900	10.167	0.100
509.000	16.224	0.100
509.100	20.183	0.100
509.200	15.901	0.100
509.300	12.785	0.100
509.400	-0.738	0.100
509.500	16.644	0.100
509.600	11.366	0.100
509.700	10.336	0.100
509.800	5.719	0.100
509.900	7.625	0.100
510.000	12.393	0.100
510.100	25.267	0.100
510.200	5.827	0.100
510.300	20.160	0.100
510.400	18.485	0.100
510.500	7.098	0.100
510.600	31.265	0.100
510.700	8.489	0.100
510.800	18.144	0.100
510.900	11.269	0.100
511.000	1.420	0.100
511.100	12.539	0.100
511.200	22.364	0.100
511.300	6.236	0.100
511.400	19.577	0.100
511.500	17.822	0.100
511.600	16.783	0.100
511.700	5.561	0.100
511.800	12.256	0.100
511.900	18.930	0.100
512.000	0.539	0.100
512.100	2.910	0.100
512.200	23.004	0.100
512.300	15.763	0.100
512.400	15.061	0.100
512.500	19.917	0.100
512.600	11.388	0.100
512.700	2.807	0.100
512.800	13.324	0.100
512.900	12.729	0.100
513.000	18.167	0.100
513.100	14.123	0.100
513.200	6.357	0.100
513.300	10.617	0.100
513.400	17.702	0.100
513.500	9.181	0.100
513.600	7.338	0.100
513.700	10.481	0.100
513.800	11.981	0.100
513.900	14.104	0.100
514.000	13.155	0.100
514.100	0.010	0.100
514.200	25.095	0.100
514.300	15.096	0.100
514.400	7.440	0.100
514.500	26.026	0.100
514.600	9.689	0.100
514.700	6.645	0.100
514.800	23.384	0.100
514.900	-7.046	0.100
515.000	-4.115	0.100
515.100	17.755	0.100
515.200	25.592	0.100
515.300	29.379	0.100
515.400	5.099	0.100
515.500	2.351	0.100
515.600	5.628	0.100
515.700	7.073	0.100
515.800	14.352	0.100
515.900	11.206	0.100
516.000	20.544	0.100
516.100	4.927	0.100
516.200	30.209	0.100
516.300	13.053	0.100
516.400	17.151	0.100
516.500	11.247	0.100
516.600	11.716	0.100
516.700	13.470	0.100
516.800	4.332	0.100
516.900	15.462	0.100
517.000	-1.517	0.100
517.100	19.723	0.100
517.200	11.491	0.100
517.300	7.900	0.100
517.400	12.080	0.100
517.500	18.647	0.100
517.600	5.887	0.100
517.700	9.513	0.100
517.800	1.453	0.100
517.900	19.703	0.100
518.000	8.350	0.100
518.100	3.429	0.100
518.200	8.356	0.100
518.300	30.200	0.100
518.400	17.525	0.100
518.500	14.133	0.100
518.600	-2.996	0.100
518.700	11.882	0.100
518.800	29.084	0.100
518.900	20.599	0.100
519.000	16.758	0.100
519.100	3.420	0.100
519.200	14.045	0.100
519.300	21.403	0.100
519.400	8.263	0.100
519.500	4.662	0.100
519.600	14.688	0.100
519.700	6.233	0.100
519.800	16.214	0.100
519.900	22.090	0.100
520.000	1.693	0.100
520.100	8.503	0.100
520.200	7.318	0.100
520.300	14.527	0.100
520.400	14.078	0.100
520.500	15.558	0.100
520.600	30.196	0.100
520.700	12.065	0.100
520.800	11.260	0.100
520.900	19.428	0.100
521.000	10.679	0.100
521.100	12.900	0.100
521.200	12.357	0.100
521.300	24.193	0.100
521.400	18.832	0.100
521.500	6.146	0.100
521.600	1.646	0.100
521.700	4.219	0.100
521.800	13.268	0.100
521.900	14.773	0.100
522.000	22.656	0.100
522.100	13.563	0.100
522.200	2.324	0.100
522.300	16.803	0.100
522.400	8.460	0.100
522.500	-0.534	0.100
522.600	6.649	0.100
522.700	22.310	0.100
522.800	10.291	0.100
522.900	3.616	0.100
523.000	13.629	0.100
523.100	11.636	0.100
523.200	18.400	0.100
523.300	16.721	0.100
523.400	10.352	0.100
523.500	5.502	0.100
523.600	-1.185	0.100
523.700	23.985	0.100
523.800	31.555	0.100
523.900	9.809	0.100
524.000	0.498	0.100
524.100	5.015	0.100
524.200	11.388	0.100
524.300	24.916	0.100
524.400	10.711	0.100
524.500	6.176	0.100
524.600	14.700	0.100
524.700	1.915	0.100
524.800	19.093	0.100
524.900	7.109	0.100
525.000	8.662	0.100
525.100	14.765	0.100
525.200	9.139	0.100
525.300	6.291	0.100
525.400	5.655	0.100
525.500	15.301	0.100
525.600	18.939	0.100
525.700	16.368	0.100
525.800	10.412	0.100
525.900	18.644	0.100
526.000	-8.523	0.100
526.100	-11.053	0.100
526.200	19.192	0.100
526.300	22.683	0.100
526.400	-1.999	0.100
526.500	5.212	0.100
526.600	18.732	0.100
526.700	3.273	0.100
526.800	23.031	0.100
526.900	12.039	0.100
527.000	5.440	0.100
527.100	17.021	0.100
527.200	10.250	0.100
527.300	26.261	0.100
527.400	8.496	0.100
527.500	10.515	0.100
527.600	7.328	0.100
527.700	11.450	0.100
527.800	12.845	0.100
527.900	2.802	0.100
528.000	23.570	0.100
528.100	17.277	0.100
528.200	8.380	0.100
528.300	15.190	0.100
528.400	9.264	0.100
528.500	22.976	0.100
528.600	3.294	0.100
528.700	6.340	0.100
528.800	4.956	0.100
528.900	12.876	0.100
529.000	5.811	0.100
529.100	30.169	0.100
529.200	14.296	0.100
529.300	12.550	0.100
529.400	-9.462	0.100
529.500	1.712	0.100
529.600	29.536	0.100
529.700	4.208	0.100
529.800	9.011	0.100
529.900	7.556	0.100
530.000	-2.867	0.100
530.100	10.220	0.100
530.200	22.087	0.100
530.300	14.990	0.100
530.400	4.916	0.100
530.500	6.868	0.100
530.600	15.956	0.100
530.700	16.567	0.100
530.800	15.759	0.100
530.900	12.621	0.100
531.000	12.017	0.100
531.100	7.988	0.100
531.200	6.859	0.100
531.300	21.245	0.100
531.400	18.309	0.100
531.500	16.990	0.100
531.600	10.674	0.100
531.700	7.614	0.100
531.800	15.784	0.100
531.900	11.278	0.100
532.000	2.825	0.100
532.100	11.427	0.100
532.200	11.674	0.100
532.300	18.673	0.100
532.400	18.327	0.100
532.500	14.391	0.100
532.600	19.824	0.100
532.700	-1.786	0.100
532.800	7.393	0.100
532.900	7.111	0.100
533.000	14.879	0.100
533.100	6.717	0.100
533.200	15.151	0.100
533.300	10.979	0.100
533.400	9.213	0.100
533.500	-3.842	0.100
533.600	8.243	0.100
533.700	10.310	0.100
533.800	16.845	0.100
533.900	0.146	0.100
534.000	16.391	0.100
534.100	17.233	0.100
534.200	2.674	0.100
534.300	7.952	0.100
534.400	17.131	0.100
534.500	7.172	0.100
534.600	-0.471	0.100
534.700	21.486	0.100
534.800	9.948	0.100
534.900	13.780	0.100
535.000	18.253	0.100
535.100	-0.052	0.100
535.200	7.184	0.100
535.300	11.386	0.100
535.400	13.956	0.100
535.500	15.395	0.100
535.600	10.205	0.100
535.700	20.244	0.100
535.800	15.041	0.100
535.900	5.050	0.100
536.000	0.143	0.100
536.100	12.729	0.100
536.200	7.697	0.100
536.300	3.283	0.100
536.400	9.472	0.100
536.500	5.473	0.100
536.600	7.552	0.100
536.700	12.792	0.100
536.800	4.425	0.100
536.900	-0.010	0.100
537.000	18.341	0.100
537.100	22.102	0.100
537.200	21.282	0.100
537.300	6.234	0.100
537.400	11.934	0.100
537.500	19.663	0.100
537.600	6.733	0.100
537.700	3.348	0.100
537.800	-2.798	0.100
537.900	16.524	0.100
538.000	11.819	0.100
538.100	8.735	0.100
538.200	17.182	0.100
538.300	2.029	0.100
538.400	18.790	0.100
538.500	16.720	0.100
538.600	10.263	0.100
538.700	17.940	0.100
538.800	3.066	0.100
538.900	6.737	0.100
539.000	12.645	0.100
539.100	-0.572	0.100
539.200	-3.125	0.100
539.300	19.038	0.100
539.400	18.479	0.100
539.500	19.811	0.100
539.600	9.595	0.100
539.700	13.873	0.100
539.800	20.636	0.100
539.900	17.566	0.100
540.000	-3.581	0.100
540.100	2.034	0.100
540.200	11.302	0.100
540.300	7.326	0.100
540.400	1.106	0.100
540.500	-3.015	0.100
540.600	-10.954	0.100
540.700	-4.085	0.100
540.800	-8.658	0.100
540.900	-1.594	0.100
541.000	-0.993	0.100
541.100	-15.760	0.100
541.200	-14.767	0.100
541.300	-8.087	0.100
541.400	-5.379	0.100
541.500	-12.140	0.100
541.600	-11.442	0.100
541.700	-31.913	0.100
541.800	-8.563	0.100
541.900	-8.583	0.100
542.000	-13.606	0.100
542.100	-1.928	0.100
542.200	-3.306	0.100
542.300	-17.026	0.100
542.400	-13.224	0.100
542.500	-12.912	0.100
542.600	-27.559	0.100
542.700	-13.660	0.100
542.800	-17.678	0.100
542.900	-15.075	0.100
543.000	-16.430	0.100
543.100	-15.812	0.100
543.200	-34.156	0.100
543.300	-15.705	0.100
543.400	-17.142	0.100
543.500	-11.384	0.100
543.600	-11.685	0.100
543.700	-12.748	0.100
543.800	-22.815	0.100
543.900	-27.760	0.100
544.000	-11.493	0.100
544.100	-22.236	0.100
544.200	-6.168	0.100
544.300	-14.465	0.100
544.400	-10.796	0.100
544.500	-9.995	0.100
544.600	-16.739	0.100
544.700	-8.242	0.100
544.800	-11.666	0.100
544.900	-20.392	0.100
545.000	-24.079	0.100
545.100	-10.470	0.100
545.200	-25.932	0.100
545.300	-15.116	0.100
545.400	-22.938	0.100
545.500	-27.151	0.100
545.600	-12.632	0.100
545.700	0.523	0.100
545.800	-21.204	0.100
545.900	-9.761	0.100
546.000	-11.066	0.100
546.100	-18.365	0.100
546.200	-13.188	0.100
546.300	-15.411	0.100
546.400	-7.841	0.100
546.500	-24.031	0.100
546.600	-10.597	0.100
546.700	-18.193	0.100
546.800	-6.537	0.100
546.900	-0.239	0.100
547.000	-12.077	0.100
547.100	-0.575	0.100
547.200	-17.648	0.100
547.300	-9.399	0.100
547.400	-9.223	0.100
547.500	-7.873	0.100
547.600	-22.357	0.100
547.700	-17.009	0.100
547.800	-13.804	0.100
547.900	-1.783	0.100
548.000	-11.552	0.100
548.100	-10.876	0.100
548.200	-21.654	0.100
548.300	-13.843	0.100
548.400	-10.571	0.100
548.500	-5.851	0.100
548.600	4.315	0.100
548.700	-13.843	0.100
548.800	-3.920	0.100
548.900	-25.881	0.100
549.000	-1.791	0.100
549.100	-10.269	0.100
549.200	-11.921	0.100
549.300	-13.817	0.100
549.400	-15.239	0.100
549.500	-13.321	0.100
549.600	-9.338	0.100
549.700	0.282	0.100
549.800	-28.879	0.100
549.900	-9.391	0.100
550.000	-4.267	0.100
550.100	-27.505	0.100
550.200	-24.276	0.100
550.300	-9.796	0.100
550.400	-0.965	0.100
550.500	-8.997	0.100
550.600	-5.350	0.100
550.700	-3.299	0.100
550.800	-5.611	0.100
550.900	-18.158	0.100
551.000	-1.621	0.100
551.100	-2.167	0.100
551.200	-9.127	0.100
551.300	-9.682	0.100
551.400	-21.413	0.100
551.500	-19.934	0.100
551.600	-6.037	0.100
551.700	-5.979	0.100
551.800	-4.086	0.100
551.900	-4.780	0.100
552.000	-9.813	0.100
552.100	-33.462	0.100
552.200	-10.672	0.100
552.300	-10.556	0.100
552.400	-9.834	0.100
552.500	2.086	0.100
552.600	-13.941	0.100
552.700	-15.605	0.100
552.800	-20.743	0.100
552.900	-15.483	0.100
553.000	-10.125	0.100
553.100	-8.671	0.100
553.200	-15.436	0.100
553.300	-14.845	0.100
553.400	3.537	0.100
553.500	-3.387	0.100
553.600	-15.563	0.100
553.700	-20.406	0.100
553.800	-8.955	0.100
553.900	1.749	0.100
554.000	-12.664	0.100
554.100	-3.142	0.100
554.200	-7.557	0.100
554.300	-4.400	0.100
554.400	-17.314	0.100
554.500	-9.013	0.100
554.600	-12.009	0.100
554.700	-6.232	0.100
554.800	-8.728	0.100
554.900	-27.887	0.100
555.000	-19.401	0.100
555.100	-2.125	0.100
555.200	-23.091	0.100
555.300	-17.365	0.100
555.400	-12.073	0.100
555.500	-7.818	0.100
555.600	-14.805	0.100
555.700	-3.445	0.100
555.800	-1.889	0.100
555.900	-1.498	0.100
556.000	-8.401	0.100
556.100	-12.517	0.100
556.200	-12.962	0.100
556.300	-25.774	0.100
556.400	-8.939	0.100
556.500	-5.902	0.100
556.600	-7.674	0.100
556.700	-17.688	0.100
556.800	-13.431	0.100
556.900	-8.619	0.100
557.000	-0.916	0.100
557.100	-5.867	0.100
557.200	-23.545	0.100
557.300	1.129	0.100
557.400	-17.765	0.100
557.500	-4.643	0.100
557.600	-21.599	0.100
557.700	2.935	0.100
557.800	-3.292	0.100
557.900	-1.216	0.100
558.000	-9.600	0.100
558.100	-4.862	0.100
558.200	-6.311	0.100
558.300	-21.665	0.100
558.400	-27.517	0.100
558.500	-24.959	0.100
558.600	-2.167	0.100
558.700	-3.072	0.100
558.800	-5.649	0.100
558.900	-13.272	0.100
559.000	-12.803	0.100
559.100	-2.096	0.100
559.200	-23.373	0.100
559.300	-5.475	0.100
559.400	-9.672	0.100
559.500	-12.141	0.100
559.600	-6.414	0.100
559.700	-7.017	0.100
559.800	-11.861	0.100
559.900	-8.240	0.100
560.000	-10.399	0.100
560.100	-33.053	0.100
560.200	-9.166	0.100
560.300	-15.115	0.100
560.400	1.964	0.100
560.500	-15.031	0.100
560.600	-10.774	0.100
560.700	-8.958	0.100
560.800	-9.278	0.100
560.900	-11.404	0.100
561.000	2.790	0.100
561.100	-2.195	0.100
561.200	-11.043	0.100
561.300	-6.375	0.100
561.400	-8.332	0.100
561.500	4.896	0.100
561.600	-8.563	0.100
561.700	-22.334	0.100
561.800	-1.471	0.100
561.900	-14.924	0.100
562.000	-18.894	0.100
562.100	-6.694	0.100
562.200	-4.722	0.100
562.300	-8.433	0.100
562.400	-2.013	0.100
562.500	-22.645	0.100
562.600	-17.477	0.100
562.700	-11.875	0.100
562.800	12.544	0.100
562.900	-2.190	0.100
563.000	-21.652	0.100
563.100	0.466	0.100
563.200	-2.326	0.100
563.300	-18.472	0.100
563.400	-6.135	0.100
563.500	-4.656	0.100
563.600	2.236	0.100
563.700	-19.843	0.100
563.800	-11.529	0.100
563.900	-2.646	0.100
564.000	-4.620	0.100
564.100	1.965	0.100
564.200	-9.708	0.100
564.300	-24.178	0.100
564.400	-10.634	0.100
564.500	-6.419	0.100
564.600	-5.892	0.100
564.700	-3.523	0.100
564.800	0.248	0.100
564.900	-3.737	0.100
565.000	-11.629	0.100
565.100	-17.392	0.100
565.200	-13.895	0.100
565.300	-10.574	0.100
565.400	-20.016	0.100
565.500	-0.135	0.100
565.600	-8.639	0.100
565.700	-14.170	0.100
565.800	-15.902	0.100
565.900	-10.121	0.100
566.000	-9.782	0.100
566.100	-6.782	0.100
566.200	-19.417	0.100
566.300	-4.467	0.100
566.400	3.722	0.100
566.500	1.885	0.100
566.600	-15.541	0.100
566.700	-11.303	0.100
566.800	-9.770	0.100
566.900	-9.265	0.100
567.000	-10.254	0.100
567.100	-3.971	0.100
567.200	-16.616	0.100
567.300	-1.732	0.100
567.400	-1.409	0.100
567.500	-11.952	0.100
567.600	-6.159	0.100
567.700	-3.098	0.100
567.800	1.131	0.100
567.900	-17.629	0.100
568.000	-2.310	0.100
568.100	-9.210	0.100
568.200	-12.720	0.100
568.300	-18.025	0.100
568.400	-8.742	0.100
568.500	-12.624	0.100
568.600	-15.202	0.100
568.700	-14.131	0.100
568.800	-6.170	0.100
568.900	-1.960	0.100
569.000	-9.781	0.100
569.100	-15.650	0.100
569.200	-7.176	0.100
569.300	-1.752	0.100
569.400	-9.121	0.100
569.500	-12.263	0.100
569.600	-9.748	0.100
569.700	-9.364	0.100
569.800	-20.896	0.100
569.900	8.519	0.100
570.000	-0.657	0.100
570.100	-15.577	0.100
570.200	-10.990	0.100
570.300	-5.151	0.100
570.400	-1.453	0.100
570.500	-4.451	0.100
570.600	-2.674	0.100
570.700	-13.335	0.100
570.800	-16.459	0.100
570.900	0.338	0.100
571.000	-1.912	0.100
571.100	-20.631	0.100
571.200	-9.037	0.100
571.300	-15.405	0.100
571.400	-0.676	0.100
571.500	-7.593	0.100
571.600	-9.828	0.100
571.700	-14.546	0.100
571.800	-2.677	0.100
571.900	-16.009	0.100
572.000	-11.458	0.100
572.100	-2.972	0.100
572.200	2.943	0.100
572.300	-6.059	0.100
572.400	-21.866	0.100
572.500	-12.498	0.100
572.600	-2.298	0.100
572.700	-16.503	0.100
572.800	-6.956	0.100
572.900	-7.873	0.100
573.000	5.840	0.100
573.100	-20.722	0.100
573.200	0.088	0.100
573.300	-1.385	0.100
573.400	-3.203	0.100
573.500	-22.938	0.100
573.600	-7.387	0.100
573.700	-12.762	0.100
573.800	-13.123	0.100
573.900	-10.116	0.100
574.000	-9.727	0.100
574.100	-20.699	0.100
574.200	-22.971	0.100
574.300	-19.099	0.100
574.400	-4.805	0.100
574.500	-13.324	0.100
574.600	-7.993	0.100
574.700	12.641	0.100
574.800	4.078	0.100
574.900	2.652	0.100
575.000	-13.744	0.100
575.100	-7.699	0.100
575.200	-9.299	0.100
575.300	-9.384	0.100
575.400	4.717	0.100
575.500	-12.727	0.100
575.600	-30.993	0.100
575.700	-8.922	0.100
575.800	-5.824	0.100
575.900	1.750	0.100
576.000	-10.508	0.100
576.100	-10.468	0.100
576.200	-21.785	0.100
576.300	-5.406	0.100
576.400	-11.320	0.100
576.500	-8.887	0.100
576.600	-0.098	0.100
576.700	-13.377	0.100
576.800	-15.325	0.100
576.900	-8.243	0.100
577.000	-2.164	0.100
577.100	-6.456	0.100
577.200	3.201	0.100
577.300	3.097	0.100
577.400	-8.827	0.100
577.500	-10.126	0.100
577.600	-3.313	0.100
577.700	2.254	0.100
577.800	-7.459	0.100
577.900	-12.445	0.100
578.000	-25.611	0.100
578.100	-6.873	0.100
578.200	-9.301	0.100
578.300	-16.160	0.100
578.400	-6.129	0.100
578.500	-14.489	0.100
578.600	3.753	0.100
578.700	-7.254	0.100
578.800	-6.688	0.100
578.900	-1.601	0.100
579.000	-1.682	0.100
579.100	-12.500	0.100
579.200	-9.579	0.100
579.300	-9.956	0.100
579.400	-12.147	0.100
579.500	-0.055	0.100
579.600	-9.477	0.100
579.700	-6.063	0.100
579.800	-21.281	0.100
579.900	-9.953	0.100
580.000	-3.710	0.100
580.100	-2.816	0.100
580.200	-10.076	0.100
580.300	-13.103	0.100
580.400	-14.748	0.100
580.500	-7.531	0.100
580.600	-1.067	0.100
580.700	-8.238	0.100
580.800	-2.933	0.100
580.900	-5.813	0.100
581.000	-5.889	0.100
581.100	6.809	0.100
581.200	-14.423	0.100
581.300	-8.671	0.100
581.400	-16.048	0.100
581.500	-7.691	0.100
581.600	-10.412	0.100
581.700	-3.549	0.100
581.800	-2.455	0.100
581.900	-14.188	0.100
582.000	-21.452	0.100
582.100	-7.139	0.100
582.200	-14.855	0.100
582.300	-16.786	0.100
582.400	-1.470	0.100
582.500	3.367	0.100
582.600	-12.111	0.100
582.700	-21.075	0.100
582.800	-12.581	0.100
582.900	-4.521	0.100
583.000	-4.566	0.100
583.100	-2.141	0.100
583.200	-19.870	0.100
583.300	-10.594	0.100
583.400	-5.645	0.100
583.500	-4.777	0.100
583.600	-7.607	0.100
583.700	-17.513	0.100
583.800	-16.994	0.100
583.900	-5.262	0.100
584.000	-9.979	0.100
584.100	-2.163	0.100
584.200	-6.248	0.100
584.300	-0.677	0.100
584.400	-16.604	0.100
584.500	-17.724	0.100
584.600	-6.327	0.100
584.700	-7.099	0.100
584.800	-2.795	0.100
584.900	-7.054	0.100
585.000	-1.399	0.100
585.100	-1.214	0.100
585.200	-6.402	0.100
585.300	-2.553	0.100
585.400	-6.744	0.100
585.500	3.702	0.100
585.600	-1.590	0.100
585.700	-7.569	0.100
585.800	-12.644	0.100
585.900	-19.982	0.100
586.000	-0.476	0.100
586.100	-7.681	0.100
586.200	-7.562	0.100
586.300	-12.011	0.100
586.400	-9.320	0.100
586.500	-23.919	0.100
586.600	-11.674	0.100
586.700	-6.995	0.100
586.800	-0.874	0.100
586.900	-1.153	0.100
587.000	-2.487	0.100
587.100	2.519	0.100
587.200	-7.687	0.100
587.300	-13.245	0.100
587.400	-0.849	0.100
587.500	-11.247	0.100
587.600	0.057	0.100
587.700	-19.735	0.100
587.800	-2.460	0.100
587.900	-15.442	0.100
588.000	5.272	0.100
588.100	-3.383	0.100
588.200	-5.354	0.100
588.300	0.791	0.100
588.400	-1.737	0.100
588.500	-0.136	0.100
588.600	-13.905	0.100
588.700	-2.702	0.100
588.800	-10.446	0.100
588.900	-8.089	0.100
589.000	-13.968	0.100
589.100	-14.112	0.100
589.200	-16.993	0.100
589.300	-3.506	0.100
589.400	-8.948	0.100
589.500	-16.840	0.100
589.600	-6.936	0.100
589.700	4.691	0.100
589.800	-10.302	0.100
589.900	-12.751	0.100
590.000	0.128	0.100
590.100	-14.035	0.100
590.200	-14.403	0.100
590.300	4.736	0.100
590.400	-14.684	0.100
590.500	1.667	0.100
590.600	-13.010	0.100
590.700	-2.468	0.100
590.800	-1.977	0.100
590.900	-16.472	0.100
591.000	-18.491	0.100
591.100	-11.630	0.100
591.200	0.464	0.100
591.300	-11.544	0.100
591.400	4.144	0.100
591.500	-0.119	0.100
591.600	-14.394	0.100
591.700	-1.522	0.100
591.800	-4.886	0.100
591.900	-6.823	0.100
592.000	-16.888	0.100
592.100	-5.823	0.100
592.200	-11.841	0.100
592.300	1.215	0.100
592.400	-5.993	0.100
592.500	-1.481	0.100
592.600	1.086	0.100
592.700	1.315	0.100
592.800	-9.810	0.100
592.900	-11.294	0.100
593.000	-5.052	0.100
593.100	-1.697	0.100
593.200	-2.022	0.100
593.300	-10.649	0.100
593.400	-5.838	0.100
593.500	-10.122	0.100
593.600	-9.287	0.100
593.700	-5.025	0.100
593.800	-16.106	0.100
593.900	-14.383	0.100
594.000	-0.955	0.100
594.100	-7.598	0.100
594.200	-3.242	0.100
594.300	-11.476	0.100
594.400	-5.440	0.100
594.500	-17.096	0.100
594.600	-6.268	0.100
594.700	0.213	0.100
594.800	-7.840	0.100
594.900	-11.263	0.100
595.000	-2.618	0.100
595.100	-2.921	0.100
595.200	-10.805	0.100
595.300	-7.413	0.100
595.400	-5.681	0.100
595.500	0.478	0.100
595.600	-10.538	0.100
595.700	-19.646	0.100
595.800	-0.185	0.100
595.900	5.116	0.100
596.000	-6.576	0.100
596.100	-2.848	0.100
596.200	-5.237	0.100
596.300	-7.187	0.100
596.400	-20.593	0.100
596.500	-12.217	0.100
596.600	-7.770	0.100
596.700	-7.670	0.100
596.800	-17.856	0.100
596.900	-7.672	0.100
597.000	3.665	0.100
597.100	-9.257	0.100
597.200	-6.232	0.100
597.300	9.753	0.100
597.400	0.214	0.100
597.500	-2.142	0.100
597.600	-4.545	0.100
597.700	-12.102	0.100
597.800	-17.600	0.100
597.900	-5.166	0.100
598.000	-15.464	0.100
598.100	-14.852	0.100
598.200	2.246	0.100
598.300	-8.233	0.100
598.400	-0.392	0.100
598.500	1.981	0.100
598.600	-6.705	0.100
598.700	-7.419	0.100
598.800	-5.833	0.100
598.900	-9.167	0.100
599.000	-11.906	0.100
599.100	-14.805	0.100
599.200	-4.048	0.100
599.300	-5.479	0.100
599.400	-5.780	0.100
599.500	-2.451	0.100
599.600	3.704	0.100
599.700	0.413	0.100
599.800	-10.257	0.100
599.900	-3.462	0.100
600.000	-5.259	0.100
600.100	-2.698	0.100
600.200	-0.429	0.100
600.300	-13.059	0.100
600.400	-11.538	0.100
600.500	-14.299	0.100
600.600	-4.617	0.100
600.700	-1.474	0.100
600.800	1.755	0.100
600.900	-2.110	0.100
601.000	5.230	0.100
601.100	-6.803	0.100
601.200	0.216	0.100
601.300	-3.278	0.100
601.400	-6.371	0.100
601.500	-10.307	0.100
601.600	-11.301	0.100
601.700	-10.207	0.100
601.800	-8.049	0.100
601.900	-16.834	0.100
602.000	-8.458	0.100
602.100	-1.527	0.100
602.200	-8.599	0.100
602.300	-12.288	0.100
602.400	-10.313	0.100
602.500	-9.457	0.100
602.600	1.687	0.100
602.700	-7.438	0.100
602.800	-3.139	0.100
602.900	-2.836	0.100
603.000	-0.234	0.100
603.100	-7.354	0.100
603.200	1.774	0.100
603.300	-6.857	0.100
603.400	-0.438	0.100
603.500	-18.619	0.100
603.600	-8.550	0.100
603.700	-14.733	0.100
603.800	-2.918	0.100
603.900	-9.424	0.100
604.000	-11.932	0.100
604.100	-7.936	0.100
604.200	-16.765	0.100
604.300	3.113	0.100
604.400	-7.403	0.100
604.500	0.606	0.100
604.600	-13.999	0.100
604.700	-16.480	0.100
604.800	-3.827	0.100
604.900	-12.889	0.100
605.000	-5.494	0.100
605.100	-15.266	0.100
605.200	-15.915	0.100
605.300	-10.800	0.100
605.400	3.684	0.100
605.500	-6.716	0.100
605.600	-11.536	0.100
605.700	-8.152	0.100
605.800	5.932	0.100
605.900	-5.335	0.100
606.000	-4.352	0.100
606.100	11.524	0.100
606.200	-9.532	0.100
606.300	-12.334	0.100
606.400	-5.835	0.100
606.500	-17.752	0.100
606.600	-6.287	0.100
606.700	-3.328	0.100
606.800	3.758	0.100
606.900	-11.876	0.100
607.000	-7.757	0.100
607.100	-1.122	0.100
607.200	7.659	0.100
607.300	-9.832	0.100
607.400	-8.298	0.100
607.500	-9.736	0.100
607.600	-7.712	0.100
607.700	-10.952	0.100
607.800	3.634	0.100
607.900	0.240	0.100
608.000	-9.338	0.100
608.100	-16.198	0.100
608.200	-6.132	0.100
608.300	-6.471	0.100
608.400	-5.625	0.100
608.500	-2.403	0.100
608.600	-7.528	0.100
608.700	-7.889	0.100
608.800	-1.436	0.100
608.900	0.329	0.100
609.000	0.834	0.100
609.100	-5.797	0.100
609.200	-13.033	0.100
609.300	0.866	0.100
609.400	-4.152	0.100
609.500	16.127	0.100
609.600	0.503	0.100
609.700	-19.126	0.100
609.800	-4.580	0.100
609.900	-12.744	0.100
610.000	-14.325	0.100
610.100	-8.983	0.100
610.200	-4.048	0.100
610.300	-6.281	0.100
610.400	-10.593	0.100
610.500	-0.075	0.100
610.600	-9.418	0.100
610.700	-9.849	0.100
610.800	1.307	0.100
610.900	-4.637	0.100
611.000	-3.836	0.100
611.100	-21.495	0.100
611.200	-7.623	0.100
611.300	-8.848	0.100
611.400	-16.457	0.100
611.500	-11.142	0.100
611.600	-1.741	0.100
611.700	2.803	0.100
611.800	13.784	0.100
611.900	-2.602	0.100
612.000	1.851	0.100
612.100	-2.327	0.100
612.200	-9.424	0.100
612.300	-0.276	0.100
612.400	-11.788	0.100
612.500	-16.636	0.100
612.600	-4.248	0.100
612.700	-4.061	0.100
612.800	-2.899	0.100
612.900	2.433	0.100
613.000	-4.298	0.100
613.100	-12.029	0.100
613.200	-20.798	0.100
613.300	-9.240	0.100
613.400	7.010	0.100
613.500	-27.242	0.100
613.600	-9.088	0.100
613.700	4.071	0.100
613.800	7.160	0.100
613.900	-0.398	0.100
614.000	-3.690	0.100
614.100	4.881	0.100
614.200	6.497	0.100
614.300	-3.585	0.100
614.400	2.576	0.100
614.500	-19.450	0.100
614.600	-10.641	0.100
614.700	-1.237	0.100
614.800	-3.988	0.100
614.900	-1.487	0.100
615.000	1.210	0.100
615.100	3.488	0.100
615.200	-12.541	0.100
615.300	-23.254	0.100
615.400	-3.606	0.100
615.500	2.586	0.100
615.600	-2.546	0.100
615.700	-8.985	0.100
615.800	-17.978	0.100
615.900	-0.991	0.100
616.000	-31.680	0.100
616.100	9.346	0.100
616.200	-0.710	0.100
616.300	0.694	0.100
616.400	-14.259	0.100
616.500	-7.364	0.100
616.600	-7.702	0.100
616.700	2.628	0.100
616.800	-2.955	0.100
616.900	-3.862	0.100
617.000	4.438	0.100
617.100	1.584	0.100
617.200	-5.587	0.100
617.300	-3.172	0.100
617.400	-9.580	0.100
617.500	-5.482	0.100
617.600	0.557	0.100
617.700	-3.764	0.100
617.800	-15.723	0.100
617.900	-10.469	0.100
618.000	1.433	0.100
618.100	-0.905	0.100
618.200	-2.383	0.100
618.300	-12.054	0.100
618.400	-15.400	0.100
618.500	-6.545	0.100
618.600	1.684	0.100
618.700	-13.165	0.100
618.800	-5.814	0.100
618.900	7.461	0.100
619.000	-0.556	0.100
619.100	-4.847	0.100
619.200	-3.887	0.100
619.300	5.237	0.100
619.400	-8.037	0.100
619.500	-16.290	0.100
619.600	-16.154	0.100
619.700	23.706	0.100
619.800	-6.632	0.100
619.900	-8.447	0.100
620.000	0.805	0.100
620.100	0.806	0.100
620.200	-8.829	0.100
620.300	-5.206	0.100
620.400	-8.060	0.100
620.500	-21.239	0.100
620.600	-0.337	0.100
620.700	-4.515	0.100
620.800	2.606	0.100
620.900	-4.557	0.100
621.000	-5.420	0.100
621.100	-3.800	0.100
621.200	-9.198	0.100
621.300	-15.932	0.100
621.400	-1.446	0.100
621.500	-10.705	0.100
621.600	7.446	0.100
621.700	5.574	0.100
621.800	-8.701	0.100
621.900	-8.333	0.100
622.000	-10.324	0.100
622.100	2.619	0.100
622.200	4.356	0.100
622.300	-7.957	0.100
622.400	-25.457	0.100
622.500	3.141	0.100
622.600	-6.340	0.100
622.700	-0.506	0.100
622.800	-0.709	0.100
622.900	-1.374	0.100
623.000	-1.676	0.100
623.100	-7.105	0.100
623.200	-4.173	0.100
623.300	-14.501	0.100
623.400	1.785	0.100
623.500	1.569	0.100
623.600	-13.161	0.100
623.700	-7.039	0.100
623.800	14.017	0.100
623.900	-1.235	0.100
624.000	-1.693	0.100
624.100	-8.866	0.100
624.200	-9.926	0.100
624.300	-20.649	0.100
624.400	-8.171	0.100
624.500	-8.148	0.100
624.600	4.719	0.100
624.700	-6.585	0.100
624.800	-2.411	0.100
624.900	-15.468	0.100
625.000	-10.721	0.100
625.100	-0.949	0.100
625.200	2.599	0.100
625.300	-4.253	0.100
625.400	5.348	0.100
625.500	1.137	0.100
625.600	-4.827	0.100
625.700	-15.284	0.100
625.800	2.376	0.100
625.900	-4.646	0.100
626.000	-7.839	0.100
626.100	-9.298	0.100
626.200	1.746	0.100
626.300	-12.221	0.100
626.400	-0.894	0.100
626.500	-15.596	0.100
626.600	-9.372	0.100
626.700	0.388	0.100
626.800	4.905	0.100
626.900	-4.262	0.100
627.000	-12.848	0.100
627.100	-7.556	0.100
627.200	-11.589	0.100
627.300	-10.704	0.100
627.400	4.610	0.100
627.500	-1.885	0.100
627.600	1.402	0.100
627.700	-6.149	0.100
627.800	-0.576	0.100
627.900	7.833	0.100
628.000	-14.976	0.100
628.100	-6.978	0.100
628.200	-14.269	0.100
628.300	-1.301	0.100
628.400	13.015	0.100
628.500	-10.812	0.100
628.600	-11.226	0.100
628.700	-11.843	0.100
628.800	8.902	0.100
628.900	5.766	0.100
629.000	-12.340	0.100
629.100	-17.739	0.100
629.200	-10.328	0.100
629.300	-1.082	0.100
629.400	10.243	0.100
629.500	-13.256	0.100
629.600	-11.272	0.100
629.700	1.961	0.100
629.800	-3.982	0.100
629.900	-17.479	0.100
630.000	-8.397	0.100
630.100	-1.392	0.100
630.200	8.781	0.100
630.300	5.857	0.100
630.400	8.902	0.100
630.500	13.560	0.100
630.600	-4.532	0.100
630.700	17.269	0.100
630.800	10.686	0.100
630.900	25.943	0.100
631.000	24.812	0.100
631.100	9.957	0.100
631.200	16.933	0.100
631.300	37.480	0.100
631.400	13.076	0.100
631.500	19.276	0.100
631.600	2.320	0.100
631.700	-2.679	0.100
631.800	34.183	0.100
631.900	29.242	0.100
632.000	12.196	0.100
632.100	12.516	0.100
632.200	22.627	0.100
632.300	13.210	0.100
632.400	22.634	0.100
632.500	21.898	0.100
632.600	20.319	0.100
632.700	8.017	0.100
632.800	20.611	0.100
632.900	17.361	0.100
633.000	13.095	0.100
633.100	17.475	0.100
633.200	20.813	0.100
633.300	17.658	0.100
633.400	13.697	0.100
633.500	17.891	0.100
633.600	11.736	0.100
633.700	10.367	0.100
633.800	24.240	0.100
633.900	24.222	0.100
634.000	4.574	0.100
634.100	1.406	0.100
634.200	0.271	0.100
634.300	14.412	0.100
634.400	8.564	0.100
634.500	8.369	0.100
634.600	3.703	0.100
634.700	13.439	0.100
634.800	19.216	0.100
634.900	7.533	0.100
635.000	2.571	0.100
635.100	8.015	0.100
635.200	10.419	0.100
635.300	-10.347	0.100
635.400	13.590	0.100
635.500	11.372	0.100
635.600	10.145	0.100
635.700	4.447	0.100
635.800	-9.402	0.100
635.900	-2.549	0.100
636.000	17.338	0.100
636.100	3.919	0.100
636.200	7.762	0.100
636.300	9.156	0.100
636.400	4.493	0.100
636.500	11.788	0.100
636.600	5.669	0.100
636.700	-3.300	0.100
636.800	2.449	0.100
636.900	13.379	0.100
637.000	3.085	0.100
637.100	15.249	0.100
637.200	14.630	0.100
637.300	10.594	0.100
637.400	9.352	0.100
637.500	8.090	0.100
637.600	7.993	0.100
637.700	11.344	0.100
637.800	12.254	0.100
637.900	17.581	0.100
638.000	12.806	0.100
638.100	7.044	0.100
638.200	19.353	0.100
638.300	2.892	0.100
638.400	-0.483	0.100
638.500	16.501	0.100
638.600	5.450	0.100
638.700	10.423	0.100
638.800	8.844	0.100
638.900	10.356	0.100
639.000	4.901	0.100
639.100	2.389	0.100
639.200	7.257	0.100
639.300	-7.786	0.100
639.400	-0.946	0.100
639.500	-0.280	0.100
639.600	18.777	0.100
639.700	14.991	0.100
639.800	3.431	0.100
639.900	-6.988	0.100
640.000	16.112	0.100
640.100	20.533	0.100
640.200	-1.744	0.100
640.300	7.884	0.100
640.400	-1.770	0.100
640.500	10.723	0.100
640.600	10.246	0.100
640.700	20.666	0.100
640.800	2.320	0.100
640.900	-1.006	0.100
641.000	5.214	0.100
641.100	16.287	0.100
641.200	4.717	0.100
641.300	-8.557	0.100
641.400	8.500	0.100
641.500	11.534	0.100
641.600	12.649	0.100
641.700	12.306	0.100
641.800	3.644	0.100
641.900	1.521	0.100
642.000	12.262	0.100
642.100	6.131	0.100
642.200	6.522	0.100
642.300	5.626	0.100
642.400	11.256	0.100
642.500	-2.093	0.100
642.600	12.452	0.100
642.700	1.471	0.100
642.800	10.758	0.100
642.900	8.603	0.100
643.000	-3.937	0.100
643.100	7.104	0.100
643.200	17.746	0.100
643.300	0.629	0.100
643.400	2.718	0.100
643.500	10.946	0.100
643.600	12.470	0.100
643.700	13.914	0.100
643.800	8.485	0.100
643.900	11.159	0.100
644.000	12.067	0.100
644.100	14.330	0.100
644.200	-5.794	0.100
644.300	13.816	0.100
644.400	20.661	0.100
644.500	6.875	0.100
644.600	13.855	0.100
644.700	13.878	0.100
644.800	4.085	0.100
644.900	11.443	0.100
645.000	2.617	0.100
645.100	11.783	0.100
645.200	8.099	0.100
645.300	9.973	0.100
645.400	12.481	0.100
645.500	19.969	0.100
645.600	14.421	0.100
645.700	17.295	0.100
645.800	5.459	0.100
645.900	11.768	0.100
646.000	5.993	0.100
646.100	2.071	0.100
646.200	14.304	0.100
646.300	11.937	0.100
646.400	2.790	0.100
646.500	15.831	0.100
646.600	14.034	0.100
646.700	13.703	0.100
646.800	21.049	0.100
646.900	16.394	0.100
647.000	13.243	0.100
647.100	-4.024	0.100
647.200	13.122	0.100
647.300	24.254	0.100
647.400	18.027	0.100
647.500	13.850	0.100
647.600	5.552	0.100
647.700	9.892	0.100
647.800	8.464	0.100
647.900	3.963	0.100
648.000	16.606	0.100
648.100	23.745	0.100
648.200	10.064	0.100
648.300	11.543	0.100
648.400	16.711	0.100
648.500	13.863	0.100
648.600	5.690	0.100
648.700	7.234	0.100
648.800	10.577	0.100
648.900	19.417	0.100
649.000	19.679	0.100
649.100	23.919	0.100
649.200	10.461	0.100
649.300	18.611	0.100
649.400	2.411	0.100
649.500	3.778	0.100
649.600	17.365	0.100
649.700	9.750	0.100
649.800	23.497	0.100
649.900	12.670	0.100
650.000	14.667	0.100
650.100	6.679	0.100
650.200	0.591	0.100
650.300	11.494	0.100
650.400	24.697	0.100
650.500	24.235	0.100
650.600	23.352	0.100
650.700	15.236	0.100
650.800	8.927	0.100
650.900	12.580	0.100
651.000	23.915	0.100
651.100	16.165	0.100
651.200	17.750	0.100
651.300	10.502	0.100
651.400	0.750	0.100
651.500	13.885	0.100
651.600	15.513	0.100
651.700	9.189	0.100
651.800	3.446	0.100
651.900	22.890	0.100
652.000	11.419	0.100
652.100	9.307	0.100
652.200	17.893	0.100
652.300	27.654	0.100
652.400	24.378	0.100
652.500	8.957	0.100
652.600	14.185	0.100
652.700	17.850	0.100
652.800	16.014	0.100
652.900	17.516	0.100
653.000	6.632	0.100
653.100	14.644	0.100
653.200	17.416	0.100
653.300	8.798	0.100
653.400	15.112	0.100
653.500	16.847	0.100
653.600	8.795	0.100
653.700	3.523	0.100
653.800	18.445	0.100
653.900	17.054	0.100
654.000	25.093	0.100
654.100	22.695	0.100
654.200	13.303	0.100
654.300	12.949	0.100
654.400	-6.488	0.100
654.500	25.094	0.100
654.600	27.404	0.100
654.700	8.141	0.100
654.800	9.323	0.100
654.900	16.868	0.100
655.000	14.331	0.100
655.100	7.108	0.100
655.200	13.595	0.100
655.300	12.356	0.100
655.400	7.771	0.100
655.500	8.760	0.100
655.600	7.635	0.100
655.700	18.043	0.100
655.800	28.056	0.100
655.900	24.193	0.100
656.000	6.500	0.100
656.100	12.708	0.100
656.200	15.207	0.100
656.300	13.223	0.100
656.400	6.226	0.100
656.500	6.996	0.100
656.600	18.750	0.100
656.700	12.827	0.100
656.800	12.462	0.100
656.900	27.070	0.100
657.000	26.377	0.100
657.100	16.273	0.100
657.200	19.004	0.100
657.300	17.258	0.100
657.400	32.744	0.100
657.500	19.030	0.100
657.600	5.654	0.100
657.700	13.616	0.100
657.800	14.388	0.100
657.900	5.459	0.100
658.000	18.837	0.100
658.100	17.875	0.100
658.200	13.444	0.100
658.300	25.660	0.100
658.400	0.066	0.100
658.500	24.443	0.100
658.600	10.671	0.100
658.700	13.643	0.100
658.800	23.711	0.100
658.900	13.998	0.100
659.000	10.401	0.100
659.100	13.395	0.100
659.200	13.598	0.100
659.300	17.953	0.100
659.400	13.858	0.100
659.500	10.033	0.100
659.600	9.800	0.100
659.700	-1.914	0.100
659.800	4.976	0.100
659.900	24.603	0.100
660.000	18.747	0.100
660.100	21.183	0.100
660.200	18.647	0.100
660.300	10.925	0.100
660.400	26.730	0.100
660.500	18.704	0.100
660.600	7.843	0.100
660.700	7.162	0.100
660.800	7.298	0.100
660.900	17.872	0.100
661.000	10.790	0.100
661.100	4.848	0.100
661.200	22.700	0.100
661.300	9.533	0.100
661.400	17.055	0.100
661.500	8.631	0.100
661.600	25.908	0.100
661.700	17.338	0.100
661.800	0.671	0.100
661.900	6.381	0.100
662.000	10.095	0.100
662.100	12.699	0.100
662.200	7.839	0.100
662.300	13.983	0.100
662.400	15.543	0.100
662.500	10.450	0.100
662.600	9.849	0.100
662.700	6.719	0.100
662.800	9.327	0.100
662.900	17.761	0.100
663.000	4.583	0.100
663.100	16.982	0.100
663.200	22.677	0.100
663.300	16.301	0.100
663.400	18.526	0.100
663.500	24.559	0.100
663.600	10.840	0.100
663.700	18.074	0.100
663.800	6.383	0.100
663.900	12.583	0.100
664.000	4.338	0.100
664.100	10.667	0.100
664.200	2.179	0.100
664.300	16.725	0.100
664.400	24.515	0.100
664.500	22.897	0.100
664.600	16.969	0.100
664.700	6.470	0.100
664.800	16.900	0.100
664.900	9.455	0.100
665.000	6.467	0.100
665.100	8.939	0.100
665.200	11.839	0.100
665.300	7.350	0.100
665.400	13.755	0.100
665.500	0.438	0.100
665.600	22.333	0.100
665.700	25.517	0.100
665.800	8.520	0.100
665.900	13.385	0.100
666.000	8.306	0.100
666.100	4.788	0.100
666.200	9.085	0.100
666.300	9.180	0.100
666.400	11.781	0.100
666.500	6.008	0.100
666.600	18.331	0.100
666.700	23.709	0.100
666.800	13.036	0.100
666.900	17.108	0.100
667.000	17.990	0.100
667.100	20.177	0.100
667.200	13.890	0.100
667.300	15.036	0.100
667.400	17.379	0.100
667.500	10.979	0.100
667.600	4.463	0.100
667.700	12.184	0.100
667.800	6.064	0.100
667.900	5.256	0.100
668.000	18.621	0.100
668.100	14.452	0.100
668.200	25.323	0.100
668.300	5.979	0.100
668.400	5.662	0.100
668.500	9.048	0.100
668.600	0.876	0.100
668.700	1.365	0.100
668.800	24.242	0.100
668.900	15.159	0.100
669.000	15.716	0.100
669.100	20.799	0.100
669.200	4.402	0.100
669.300	23.824	0.100
669.400	24.017	0.100
669.500	8.817	0.100
669.600	13.918	0.100
669.700	13.518	0.100
669.800	19.975	0.100
669.900	10.413	0.100
670.000	11.638	0.100
670.100	17.800	0.100
670.200	21.926	0.100
670.300	18.435	0.100
670.400	5.284	0.100
670.500	-8.056	0.100
670.600	7.063	0.100
670.700	7.893	0.100
670.800	24.176	0.100
670.900	12.177	0.100
671.000	5.719	0.100
671.100	15.321	0.100
671.200	29.646	0.100
671.300	5.624	0.100
671.400	15.841	0.100
671.500	17.328	0.100
671.600	12.714	0.100
671.700	2.807	0.100
671.800	12.335	0.100
671.900	16.069	0.100
672.000	15.446	0.100
672.100	-2.561	0.100
672.200	12.057	0.100
672.300	16.977	0.100
672.400	14.223	0.100
672.500	8.238	0.100
672.600	22.189	0.100
672.700	14.377	0.100
672.800	11.702	0.100
672.900	5.873	0.100
673.000	21.531	0.100
673.100	11.901	0.100
673.200	1.394	0.100
673.300	-1.140	0.100
673.400	22.256	0.100
673.500	23.046	0.100
673.600	9.280	0.100
673.700	13.170	0.100
673.800	10.253	0.100
673.900	5.768	0.100
674.000	12.841	0.100
674.100	18.882	0.100
674.200	27.744	0.100
674.300	14.069	0.100
674.400	18.978	0.100
674.500	11.297	0.100
674.600	12.436	0.100
674.700	11.278	0.100
674.800	20.226	0.100
674.900	-2.556	0.100
675.000	3.639	0.100
675.100	11.535	0.100
675.200	12.396	0.100
675.300	18.520	0.100
675.400	16.031	0.100
675.500	13.556	0.100
675.600	13.487	0.100
675.700	6.088	0.100
675.800	20.293	0.100
675.900	14.352	0.100
676.000	5.662	0.100
676.100	1.640	0.100
676.200	3.961	0.100
676.300	16.275	0.100
676.400	27.314	0.100
676.500	17.778	0.100
676.600	9.751	0.100
676.700	20.718	0.100
676.800	9.079	0.100
676.900	13.648	0.100
677.000	11.832	0.100
677.100	25.875	0.100
677.200	21.308	0.100
677.300	11.618	0.100
677.400	0.048	0.100
677.500	12.243	0.100
677.600	15.002	0.100
677.700	8.625	0.100
677.800	14.145	0.100
677.900	25.949	0.100
678.000	7.626	0.100
678.100	6.837	0.100
678.200	9.851	0.100
678.300	8.929	0.100
678.400	12.788	0.100
678.500	12.104	0.100
678.600	11.765	0.100
678.700	11.877	0.100
678.800	8.551	0.100
678.900	10.625	0.100
679.000	4.665	0.100
679.100	-4.621	0.100
679.200	19.776	0.100
679.300	10.419	0.100
679.400	17.458	0.100
679.500	6.974	0.100
679.600	8.285	0.100
679.700	14.250	0.100
679.800	19.810	0.100
679.900	20.402	0.100
680.000	7.235	0.100
680.100	1.606	0.100
680.200	9.405	0.100
680.300	1.929	0.100
680.400	13.363	0.100
680.500	13.890	0.100
680.600	3.173	0.100
680.700	15.969	0.100
680.800	17.397	0.100
680.900	11.988	0.100
681.000	25.307	0.100
681.100	3.780	0.100
681.200	19.514	0.100
681.300	22.119	0.100
681.400	14.546	0.100
681.500	18.029	0.100
681.600	2.647	0.100
681.700	5.978	0.100
681.800	21.962	0.100
681.900	12.934	0.100
682.000	16.190	0.100
682.100	16.008	0.100
682.200	13.186	0.100
682.300	13.290	0.100
682.400	22.778	0.100
682.500	12.658	0.100
682.600	11.759	0.100
682.700	16.534	0.100
682.800	7.418	0.100
682.900	14.203	0.100
683.000	4.310	0.100
683.100	6.492	0.100
683.200	2.535	0.100
683.300	16.364	0.100
683.400	12.076	0.100
683.500	20.487	0.100
683.600	11.772	0.100
683.700	6.759	0.100
683.800	22.672	0.100
683.900	14.012	0.100
684.000	21.508	0.100
684.100	7.008	0.100
684.200	8.025	0.100
684.300	18.352	0.100
684.400	7.430	0.100
684.500	8.772	0.100
684.600	11.698	0.100
684.700	1.328	0.100
684.800	20.588	0.100
684.900	16.689	0.100
685.000	13.124	0.100
685.100	10.631	0.100
685.200	16.219	0.100
685.300	7.051	0.100
685.400	13.107	0.100
685.500	13.500	0.100
685.600	2.491	0.100
685.700	5.954	0.100
685.800	12.187	0.100
685.900	17.896	0.100
686.000	16.220	0.100
686.100	20.099	0.100
686.200	15.347	0.100
686.300	10.290	0.100
686.400	7.425	0.100
686.500	0.449	0.100
686.600	8.472	0.100
686.700	11.141	0.100
686.800	18.227	0.100
686.900	13.549	0.100
687.000	11.412	0.100
687.100	10.812	0.100
687.200	8.603	0.100
687.300	21.774	0.100
687.400	5.782	0.100
687.500	4.504	0.100
687.600	12.606	0.100
687.700	7.793	0.100
687.800	25.086	0.100
687.900	18.082	0.100
688.000	5.453	0.100
688.100	7.613	0.100
688.200	10.659	0.100
688.300	13.420	0.100
688.400	15.860	0.100
688.500	16.996	0.100
688.600	0.183	0.100
688.700	3.824	0.100
688.800	16.534	0.100
688.900	22.281	0.100
689.000	16.032	0.100
689.100	2.357	0.100
689.200	22.554	0.100
689.300	18.404	0.100
689.400	5.410	0.100
689.500	28.401	0.100
689.600	-7.117	0.100
689.700	-0.970	0.100
689.800	21.939	0.100
689.900	8.628	0.100
690.000	7.019	0.100
690.100	17.999	0.100
690.200	11.818	0.100
690.300	11.988	0.100
690.400	11.100	0.100
690.500	-2.880	0.100
690.600	-5.444	0.100
690.700	-6.505	0.100
690.800	-23.541	0.100
690.900	-1.765	0.100
691.000	-6.971	0.100
691.100	2.968	0.100
691.200	-13.445	0.100
691.300	-12.496	0.100
691.400	-12.857	0.100
691.500	-12.604	0.100
691.600	-4.182	0.100
691.700	-7.596	0.100
691.800	-17.556	0.100
691.900	-11.331	0.100
692.000	-26.396	0.100
692.100	-14.952	0.100
692.200	-1.408	0.100
692.300	-8.227	0.100
692.400	-3.088	0.100
692.500	-16.067	0.100
692.600	-29.627	0.100
692.700	-20.511	0.100
692.800	-17.294	0.100
692.900	-12.102	0.100
693.000	-7.410	0.100
693.100	-16.115	0.100
693.200	-23.060	0.100
693.300	-9.505	0.100
693.400	-15.731	0.100
693.500	-20.925	0.100
693.600	-33.698	0.100
693.700	-19.148	0.100
693.800	-5.701	0.100
693.900	-12.618	0.100
694.000	-5.984	0.100
694.100	-14.081	0.100
694.200	-32.633	0.100
694.300	-14.905	0.100
694.400	-18.054	0.100
694.500	-15.528	0.100
694.600	-9.311	0.100
694.700	-22.445	0.100
694.800	-21.749	0.100
694.900	-9.061	0.100
695.000	-3.080	0.100
695.100	-18.234	0.100
695.200	-23.954	0.100
695.300	-4.377	0.100
695.400	-12.921	0.100
695.500	-9.906	0.100
695.600	-19.893	0.100
695.700	-16.824	0.100
695.800	-11.008	0.100
695.900	-2.725	0.100
696.000	-3.228	0.100
696.100	-14.062	0.100
696.200	-16.449	0.100
696.300	-16.602	0.100
696.400	-18.544	0.100
696.500	-17.037	0.100
696.600	-10.546	0.100
696.700	-5.700	0.100
696.800	-4.282	0.100
696.900	-16.367	0.100
697.000	-14.952	0.100
697.100	-28.482	0.100
697.200	-20.309	0.100
697.300	-5.224	0.100
697.400	-1.033	0.100
697.500	-5.939	0.100
697.600	-23.180	0.100
697.700	-17.964	0.100
697.800	-18.673	0.100
697.900	-13.397	0.100
698.000	-17.230	0.100
698.100	-4.790	0.100
698.200	-24.278	0.100
698.300	-16.240	0.100
698.400	-11.328	0.100
698.500	-11.284	0.100
698.600	0.284	0.100
698.700	1.482	0.100
698.800	-0.193	0.100
698.900	-8.886	0.100
699.000	-13.068	0.100
699.100	-22.796	0.100
699.200	-10.338	0.100
699.300	-13.733	0.100
699.400	3.824	0.100
699.500	-8.736	0.100
699.600	-16.929	0.100
699.700	-11.010	0.100
699.800	-22.241	0.100
699.900	-19.020	0.100
700.000	-23.792	0.100
700.100	-3.197	0.100
700.200	-4.057	0.100
700.300	-6.911	0.100
700.400	-15.257	0.100
700.500	-11.006	0.100
700.600	-20.041	0.100
700.700	-15.955	0.100
700.800	-3.876	0.100
700.900	-3.310	0.100
701.000	-17.954	0.100
701.100	-0.339	0.100
701.200	-1.828	0.100
701.300	-10.096	0.100
701.400	-2.720	0.100
701.500	-14.943	0.100
701.600	-16.079	0.100
701.700	-12.888	0.100
701.800	-13.731	0.100
701.900	-30.715	0.100
702.000	-14.867	0.100
702.100	-15.646	0.100
702.200	5.596	0.100
702.300	-17.035	0.100
702.400	-1.084	0.100
702.500	-8.290	0.100
702.600	-7.175	0.100
702.700	-11.522	0.100
702.800	-18.467	0.100
702.900	-12.981	0.100
703.000	-4.742	0.100
703.100	-1.880	0.100
703.200	-11.289	0.100
703.300	-16.732	0.100
703.400	-13.887	0.100
703.500	-6.701	0.100
703.600	5.297	0.100
703.700	-4.943	0.100
703.800	-17.740	0.100
703.900	-13.654	0.100
704.000	-21.899	0.100
704.100	-22.786	0.100
704.200	-9.953	0.100
704.300	-17.476	0.100
704.400	0.102	0.100
704.500	-14.387	0.100
704.600	-28.653	0.100
704.700	-13.370	0.100
704.800	-12.378	0.100
704.900	-11.413	0.100
705.000	-5.261	0.100
705.100	-5.847	0.100
705.200	-7.180	0.100
705.300	-6.070	0.100
705.400	-15.051	0.100
705.500	-21.418	0.100
705.600	-14.710	0.100
705.700	11.560	0.100
705.800	-1.278	0.100
705.900	-10.479	0.100
706.000	-22.234	0.100
706.100	-5.776	0.100
706.200	1.907	0.100
706.300	-17.544	0.100
706.400	-8.410	0.100
706.500	-17.975	0.100
706.600	-23.451	0.100
706.700	-9.750	0.100
706.800	-9.490	0.100
706.900	-16.111	0.100
707.000	-2.848	0.100
707.100	-15.323	0.100
707.200	-12.642	0.100
707.300	-14.806	0.100
707.400	-7.453	0.100
707.500	-4.494	0.100
707.600	0.790	0.100
707.700	-10.103	0.100
707.800	-15.329	0.100
707.900	-8.037	0.100
708.000	4.666	0.100
708.100	-13.364	0.100
708.200	-23.938	0.100
708.300	-20.490	0.100
708.400	-10.240	0.100
708.500	-16.353	0.100
708.600	5.732	0.100
708.700	-7.516	0.100
708.800	1.101	0.100
708.900	-18.813	0.100
709.000	-3.221	0.100
709.100	4.934	0.100
709.200	-15.323	0.100
709.300	-12.594	0.100
709.400	-13.525	0.100
709.500	-22.188	0.100
709.600	-12.747	0.100
709.700	-17.159	0.100
709.800	11.396	0.100
709.900	-2.739	0.100
710.000	-14.187	0.100
710.100	-9.677	0.100
710.200	-7.194	0.100
710.300	-10.208	0.100
710.400	-10.464	0.100
710.500	-6.273	0.100
710.600	-4.867	0.100
710.700	-10.884	0.100
710.800	-11.554	0.100
710.900	-16.537	0.100
711.000	-6.465	0.100
711.100	-5.703	0.100
711.200	-4.931	0.100
711.300	-15.225	0.100
711.400	-14.844	0.100
711.500	-24.725	0.100
711.600	-1.572	0.100
711.700	-13.714	0.100
711.800	-15.084	0.100
711.900	-18.539	0.100
712.000	-8.609	0.100
712.100	-0.214	0.100
712.200	-8.240	0.100
712.300	-20.075	0.100
712.400	-17.255	0.100
712.500	-5.281	0.100
712.600	-11.630	0.100
712.700	-2.776	0.100
712.800	1.284	0.100
712.900	-12.706	0.100
713.000	-4.783	0.100
713.100	-2.543	0.100
713.200	-16.687	0.100
713.300	-0.605	0.100
713.400	-1.938	0.100
713.500	-5.983	0.100
713.600	-8.990	0.100
713.700	-26.349	0.100
713.800	-7.570	0.100
713.900	-14.395	0.100
714.000	-3.455	0.100
714.100	-1.584	0.100
714.200	-4.329	0.100
714.300	-6.271	0.100
714.400	-6.368	0.100
714.500	-10.385	0.100
714.600	-16.363	0.100
714.700	-18.643	0.100
714.800	-4.536	0.100
714.900	-0.913	0.100
715.000	-9.556	0.100
715.100	-10.480	0.100
715.200	-11.643	0.100
715.300	-13.192	0.100
715.400	-3.433	0.100
715.500	-11.078	0.100
715.600	-22.369	0.100
715.700	-13.260	0.100
715.800	-12.130	0.100
715.900	2.235	0.100
716.000	-1.965	0.100
716.100	-5.350	0.100
716.200	-13.847	0.100
716.300	-5.685	0.100
716.400	-18.119	0.100
716.500	5.664	0.100
716.600	-2.772	0.100
716.700	-9.383	0.100
716.800	-4.434	0.100
716.900	-12.612	0.100
717.000	-3.731	0.100
717.100	-5.923	0.100
717.200	-16.283	0.100
717.300	-9.636	0.100
717.400	-9.744	0.100
717.500	-15.144	0.100
717.600	-16.914	0.100
717.700	-6.518	0.100
717.800	-8.329	0.100
717.900	-11.831	0.100
718.000	-8.099	0.100
718.100	-19.937	0.100
718.200	-8.737	0.100
718.300	-7.496	0.100
718.400	-2.786	0.100
718.500	-23.799	0.100
718.600	-5.928	0.100
718.700	-12.487	0.100
718.800	-16.417	0.100
718.900	-3.498	0.100
719.000	-26.802	0.100
719.100	-4.023	0.100
719.200	-3.691	0.100
719.300	-22.354	0.100
719.400	7.810	0.100
719.500	-7.429	0.100
719.600	-11.368	0.100
719.700	-9.671	0.100
719.800	-22.645	0.100
719.900	-7.857	0.100
720.000	-7.844	0.100
720.100	-11.689	0.100
720.200	-12.164	0.100
720.300	-5.943	0.100
720.400	-11.109	0.100
720.500	-11.739	0.100
720.600	-5.254	0.100
720.700	-19.428	0.100
720.800	-9.025	0.100
720.900	-15.547	0.100
721.000	-10.933	0.100
721.100	-5.988	0.100
721.200	-6.470	0.100
721.300	-6.745	0.100
721.400	-14.345	0.100
721.500	-10.203	0.100
721.600	-3.853	0.100
721.700	4.641	0.100
721.800	-9.271	0.100
721.900	-9.382	0.100
722.000	-6.847	0.100
722.100	-17.900	0.100
722.200	-21.837	0.100
722.300	0.257	0.100
722.400	-4.323	0.100
722.500	-19.696	0.100
722.600	-6.463	0.100
722.700	-9.535	0.100
722.800	-6.938	0.100
722.900	-2.403	0.100
723.000	-15.324	0.100
723.100	-15.248	0.100
723.200	-1.166	0.100
723.300	-18.292	0.100
723.400	-10.224	0.100
723.500	-11.815	0.100
723.600	-7.794	0.100
723.700	-15.434	0.100
723.800	-7.695	0.100
723.900	-17.065	0.100
724.000	-17.807	0.100
724.100	-8.905	0.100
724.200	-17.800	0.100
724.300	9.358	0.100
724.400	3.880	0.100
724.500	-12.814	0.100
724.600	-21.016	0.100
724.700	-5.940	0.100
724.800	-6.565	0.100
724.900	-3.952	0.100
725.000	-14.328	0.100
725.100	1.386	0.100
725.200	4.714	0.100
725.300	-8.461	0.100
725.400	-15.787	0.100
725.500	-8.007	0.100
725.600	-14.786	0.100
725.700	-8.847	0.100
725.800	-10.454	0.100
725.900	-14.402	0.100
726.000	-11.873	0.100
726.100	-13.410	0.100
726.200	-6.087	0.100
726.300	-24.309	0.100
726.400	-4.840	0.100
726.500	-4.944	0.100
726.600	-4.724	0.100
726.700	-13.721	0.100
726.800	-15.598	0.100
726.900	-4.392	0.100
727.000	-11.109	0.100
727.100	-6.382	0.100
727.200	-3.036	0.100
727.300	-5.164	0.100
727.400	2.853	0.100
727.500	-22.494	0.100
727.600	-22.192	0.100
727.700	-20.698	0.100
727.800	-27.555	0.100
727.900	-7.638	0.100
728.000	-2.213	0.100
728.100	-12.631	0.100
728.200	-12.178	0.100
728.300	-8.150	0.100
728.400	-2.679	0.100
728.500	-1.348	0.100
728.600	-9.357	0.100
728.700	-14.615	0.100
728.800	-1.851	0.100
728.900	-9.111	0.100
729.000	1.174	0.100
729.100	-5.595	0.100
729.200	-17.143	0.100
729.300	-13.888	0.100
729.400	-10.250	0.100
729.500	-6.832	0.100
729.600	-2.793	0.100
729.700	-2.196	0.100
729.800	-15.164	0.100
729.900	-5.847	0.100
730.000	-7.793	0.100
730.100	-11.337	0.100
730.200	-13.305	0.100
730.300	-19.246	0.100
730.400	-3.407	0.100
730.500	-15.567	0.100
730.600	-13.377	0.100
730.700	-7.928	0.100
730.800	-5.774	0.100
730.900	-0.447	0.100
731.000	-22.183	0.100
731.100	5.333	0.100
731.200	-4.648	0.100
731.300	-11.867	0.100
731.400	-5.844	0.100
731.500	-13.170	0.100
731.600	3.309	0.100
731.700	-8.834	0.100
731.800	-8.017	0.100
731.900	-8.242	0.100
732.000	-3.421	0.100
732.100	-6.537	0.100
732.200	-17.455	0.100
732.300	-19.270	0.100
732.400	-5.600	0.100
732.500	-15.304	0.100
732.600	-14.867	0.100
732.700	-12.000	0.100
732.800	-10.427	0.100
732.900	-10.826	0.100
733.000	0.838	0.100
733.100	-16.491	0.100
733.200	-11.804	0.100
733.300	-4.592	0.100
733.400	1.469	0.100
733.500	-12.306	0.100
733.600	-5.685	0.100
733.700	-3.128	0.100
733.800	-12.158	0.100
733.900	-22.785	0.100
734.000	-9.477	0.100
734.100	-0.214	0.100
734.200	-5.243	0.100
734.300	-12.009	0.100
734.400	-14.481	0.100
734.500	-2.905	0.100
734.600	-22.305	0.100
734.700	-2.378	0.100
734.800	-9.833	0.100
734.900	3.366	0.100
735.000	-5.530	0.100
735.100	-9.264	0.100
735.200	-9.301	0.100
735.300	-15.726	0.100
735.400	-6.822	0.100
735.500	-21.771	0.100
735.600	-9.876	0.100
735.700	-1.133	0.100
735.800	-2.901	0.100
735.900	0.066	0.100
736.000	-5.284	0.100
736.100	-5.397	0.100
736.200	-7.652	0.100
736.300	-17.230	0.100
736.400	-7.304	0.100
736.500	4.685	0.100
736.600	-8.281	0.100
736.700	0.819	0.100
736.800	-3.686	0.100
736.900	-10.137	0.100
737.000	-13.266	0.100
737.100	-15.999	0.100
737.200	-2.837	0.100
737.300	-4.137	0.100
737.400	-17.195	0.100
737.500	-17.767	0.100
737.600	-6.905	0.100
737.700	-8.820	0.100
737.800	-7.132	0.100
737.900	-10.984	0.100
738.000	-18.549	0.100
738.100	-16.494	0.100
738.200	-1.492	0.100
738.300	1.081	0.100
738.400	0.565	0.100
738.500	-17.261	0.100
738.600	-4.551	0.100
738.700	-2.752	0.100
738.800	-1.227	0.100
738.900	-12.080	0.100
739.000	-0.944	0.100
739.100	-20.814	0.100
739.200	-21.868	0.100
739.300	-18.506	0.100
739.400	-12.780	0.100
739.500	-15.306	0.100
739.600	-10.137	0.100
739.700	3.578	0.100
739.800	-0.083	0.100
739.900	-3.579	0.100
740.000	3.654	0.100
740.100	-3.853	0.100
740.200	-8.447	0.100
740.300	-15.935	0.100
740.400	-16.753	0.100
740.500	-9.567	0.100
740.600	-9.624	0.100
740.700	-7.463	0.100
740.800	-9.948	0.100
740.900	-16.916	0.100
741.000	-10.781	0.100
741.100	-6.662	0.100
741.200	-8.334	0.100
741.300	-18.331	0.100
741.400	1.173	0.100
741.500	4.299	0.100
741.600	-8.749	0.100
741.700	-16.442	0.100
741.800	-12.734	0.100
741.900	-7.891	0.100
742.000	-10.409	0.100
742.100	-6.809	0.100
742.200	-4.336	0.100
742.300	3.842	0.100
742.400	-9.526	0.100
742.500	0.776	0.100
742.600	-10.083	0.100
742.700	-18.636	0.100
742.800	-9.953	0.100
742.900	-1.226	0.100
743.000	0.401	0.100
743.100	-14.077	0.100
743.200	-1.046	0.100
743.300	-4.581	0.100
743.400	-0.110	0.100
743.500	-21.937	0.100
743.600	-12.205	0.100
743.700	-2.010	0.100
743.800	-20.086	0.100
743.900	-14.097	0.100
744.000	-10.375	0.100
744.100	-7.518	0.100
744.200	2.765	0.100
744.300	-3.622	0.100
744.400	-7.290	0.100
744.500	-16.881	0.100
744.600	-8.217	0.100
744.700	3.764	0.100
744.800	0.944	0.100
744.900	-2.770	0.100
745.000	-4.381	0.100
745.100	-12.423	0.100
745.200	8.448	0.100
745.300	4.734	0.100
745.400	-1.205	0.100
745.500	1.592	0.100
745.600	-8.150	0.100
745.700	-0.583	0.100
745.800	-6.851	0.100
745.900	-9.899	0.100
746.000	-11.753	0.100
746.100	-21.812	0.100
746.200	-5.676	0.100
746.300	-7.823	0.100
746.400	-6.534	0.100
746.500	-6.934	0.100
746.600	-2.846	0.100
746.700	1.809	0.100
746.800	-5.556	0.100
746.900	1.564	0.100
747.000	-12.694	0.100
747.100	-9.434	0.100
747.200	-10.210	0.100
747.300	-26.215	0.100
747.400	1.397	0.100
747.500	5.519	0.100
747.600	-5.729	0.100
747.700	6.031	0.100
747.800	-7.238	0.100
747.900	-29.170	0.100
748.000	-11.819	0.100
748.100	-7.931	0.100
748.200	-13.329	0.100
748.300	-7.566	0.100
748.400	-13.767	0.100
748.500	-5.866	0.100
748.600	-6.747	0.100
748.700	-15.392	0.100
748.800	-8.978	0.100
748.900	-10.762	0.100
749.000	-16.511	0.100
749.100	-5.035	0.100
749.200	-6.758	0.100
749.300	-4.214	0.100
749.400	-9.399	0.100
749.500	-8.338	0.100
749.600	1.820	0.100
749.700	-0.585	0.100
749.800	-13.031	0.100
749.900	-5.898	0.100
750.000	-12.690	0.100
750.100	-17.786	0.100
750.200	-12.221	0.100
750.300	-9.775	0.100
750.400	-11.765	0.100
750.500	9.964	0.100
750.600	-0.849	0.100
750.700	-11.532	0.100
750.800	-4.755	0.100
750.900	-2.079	0.100
751.000	-9.914	0.100
751.100	-16.662	0.100
751.200	-8.047	0.100
751.300	-15.145	0.100
751.400	-11.771	0.100
751.500	-11.952	0.100
751.600	-16.731	0.100
751.700	-12.656	0.100
751.800	-6.123	0.100
751.900	5.784	0.100
752.000	-2.647	0.100
752.100	-17.189	0.100
752.200	-8.754	0.100
752.300	-20.969	0.100
752.400	-7.790	0.100
752.500	-22.237	0.100
752.600	0.854	0.100
752.700	3.596	0.100
752.800	0.540	0.100
752.900	-15.199	0.100
753.000	-12.910	0.100
753.100	1.726	0.100
753.200	1.291	0.100
753.300	0.437	0.100
753.400	2.721	0.100
753.500	-9.341	0.100
753.600	-13.387	0.100
753.700	-3.467	0.100
753.800	-1.402	0.100
753.900	5.599	0.100
754.000	-4.245	0.100
754.100	-4.185	0.100
754.200	-9.284	0.100
754.300	-7.924	0.100
754.400	-6.928	0.100
754.500	-15.345	0.100
754.600	-13.074	0.100
754.700	-2.748	0.100
754.800	-13.314	0.100
754.900	-3.029	0.100
755.000	-4.352	0.100
755.100	-5.054	0.100
755.200	-20.540	0.100
755.300	-10.402	0.100
755.400	-14.277	0.100
755.500	-12.204	0.100
755.600	-0.159	0.100
755.700	-8.290	0.100
755.800	-6.932	0.100
755.900	-7.806	0.100
756.000	-1.436	0.100
756.100	3.136	0.100
756.200	-10.903	0.100
756.300	-12.448	0.100
756.400	-2.539	0.100
756.500	-10.598	0.100
756.600	-22.327	0.100
756.700	-8.055	0.100
756.800	9.968	0.100
756.900	-3.148	0.100
757.000	-8.485	0.100
757.100	-11.511	0.100
757.200	-8.413	0.100
757.300	-8.697	0.100
757.400	-5.507	0.100
757.500	-5.276	0.100
757.600	-16.431	0.100
757.700	-9.027	0.100
757.800	-7.477	0.100
757.900	-0.744	0.100
758.000	-8.059	0.100
758.100	-22.028	0.100
758.200	-5.823	0.100
758.300	-1.751	0.100
758.400	-7.744	0.100
758.500	-7.400	0.100
758.600	-2.866	0.100
758.700	-2.150	0.100
758.800	1.589	0.100
758.900	-12.902	0.100
759.000	-1.825	0.100
759.100	-3.841	0.100
759.200	-16.389	0.100
759.300	-21.719	0.100
759.400	0.574	0.100
759.500	-5.232	0.100
759.600	0.562	0.100
759.700	-6.980	0.100
759.800	-3.900	0.100
759.900	-16.811	0.100
760.000	-30.362	0.100
760.100	-5.225	0.100
760.200	3.012	0.100
760.300	-3.417	0.100
760.400	-11.040	0.100
760.500	0.766	0.100
760.600	1.836	0.100
760.700	-5.116	0.100
760.800	-12.563	0.100
760.900	-12.898	0.100
761.000	-23.844	0.100
761.100	-1.272	0.100
761.200	0.945	0.100
761.300	-10.066	0.100
761.400	-14.357	0.100
761.500	1.103	0.100
761.600	4.030	0.100
761.700	-5.123	0.100
761.800	-7.290	0.100
761.900	-22.081	0.100
762.000	-13.322	0.100
762.100	-22.145	0.100
762.200	1.933	0.100
762.300	-1.359	0.100
762.400	4.470	0.100
762.500	-11.728	0.100
762.600	-10.202	0.100
762.700	-12.685	0.100
762.800	-3.285	0.100
762.900	-4.505	0.100
763.000	-10.122	0.100
763.100	-14.636	0.100
763.200	0.528	0.100
763.300	-2.497	0.100
763.400	-6.633	0.100
763.500	-1.902	0.100
763.600	-3.472	0.100
763.700	-1.899	0.100
763.800	-9.418	0.100
763.900	-7.342	0.100
764.000	-2.766	0.100
764.100	-4.745	0.100
764.200	-9.557	0.100
764.300	-0.471	0.100
764.400	-6.039	0.100
764.500	2.256	0.100
764.600	-7.729	0.100
764.700	-12.800	0.100
764.800	-2.631	0.100
764.900	-3.079	0.100
765.000	4.762	0.100
765.100	-14.127	0.100
765.200	6.141	0.100
765.300	-6.789	0.100
765.400	-11.601	0.100
765.500	-11.698	0.100
765.600	-13.981	0.100
765.700	3.214	0.100
765.800	-8.904	0.100
765.900	-17.807	0.100
766.000	2.127	0.100
766.100	-2.080	0.100
766.200	-7.182	0.100
766.300	-5.834	0.100
766.400	-0.700	0.100
766.500	-8.537	0.100
766.600	-8.380	0.100
766.700	0.815	0.100
766.800	-0.733	0.100
766.900	-12.457	0.100
767.000	-6.975	0.100
767.100	-7.236	0.100
767.200	1.804	0.100
767.300	-14.880	0.100
767.400	-9.427	0.100
767.500	-1.455	0.100
767.600	-4.612	0.100
767.700	-5.766	0.100
767.800	8.029	0.100
767.900	-2.461	0.100
768.000	-23.516	0.100
768.100	-12.513	0.100
768.200	-17.080	0.100
768.300	-1.449	0.100
768.400	-13.824	0.100
768.500	-1.771	0.100
768.600	0.269	0.100
768.700	-7.359	0.100
768.800	1.992	0.100
768.900	-11.871	0.100
769.000	-15.624	0.100
769.100	-6.126	0.100
769.200	-4.107	0.100
769.300	-6.687	0.100
769.400	-4.702	0.100
769.500	-8.403	0.100
769.600	-9.220	0.100
769.700	-2.075	0.100
769.800	9.756	0.100
769.900	-5.754	0.100
770.000	-11.078	0.100
770.100	-3.313	0.100
770.200	-20.784	0.100
770.300	-20.173	0.100
770.400	-7.983	0.100
770.500	-17.894	0.100
770.600	0.092	0.100
770.700	5.784	0.100
770.800	-5.292	0.100
770.900	-4.934	0.100
771.000	-15.352	0.100
771.100	-3.199	0.100
771.200	-9.730	0.100
771.300	-5.355	0.100
771.400	3.581	0.100
771.500	-5.559	0.100
771.600	-4.681	0.100
771.700	-6.612	0.100
771.800	0.176	0.100
771.900	-11.876	0.100
772.000	-5.457	0.100
772.100	-5.485	0.100
772.200	-7.488	0.100
772.300	-0.418	0.100
772.400	-19.803	0.100
772.500	-11.455	0.100
772.600	-11.135	0.100
772.700	-0.124	0.100
772.800	-21.376	0.100
772.900	-11.138	0.100
773.000	0.245	0.100
773.100	-7.028	0.100
773.200	2.555	0.100
773.300	-5.424	0.100
773.400	-1.378	0.100
773.500	-19.614	0.100
773.600	-9.796	0.100
773.700	-2.410	0.100
773.800	10.593	0.100
773.900	-11.899	0.100
774.000	-8.805	0.100
774.100	-10.311	0.100
774.200	5.262	0.100
774.300	-13.656	0.100
774.400	-5.504	0.100
774.500	-17.216	0.100
774.600	-7.526	0.100
774.700	-6.433	0.100
774.800	-20.668	0.100
774.900	-4.188	0.100
775.000	-10.131	0.100
775.100	-5.477	0.100
775.200	-0.331	0.100
775.300	4.542	0.100
775.400	-12.233	0.100
775.500	-23.505	0.100
775.600	1.327	0.100
775.700	-21.239	0.100
775.800	-8.418	0.100
775.900	1.568	0.100
776.000	0.775	0.100
776.100	-2.522	0.100
776.200	0.073	0.100
776.300	-10.860	0.100
776.400	-0.378	0.100
776.500	-3.236	0.100
776.600	-2.378	0.100
776.700	-2.196	0.100
776.800	-11.358	0.100
776.900	-7.669	0.100
777.000	-14.393	0.100
777.100	-2.448	0.100
777.200	-7.120	0.100
777.300	-4.092	0.100
777.400	-10.200	0.100
777.500	3.778	0.100
777.600	-13.652	0.100
777.700	1.652	0.100
777.800	-21.768	0.100
777.900	-7.368	0.100
778.000	-14.996	0.100
778.100	-3.813	0.100
778.200	-4.284	0.100
778.300	-3.406	0.100
778.400	-9.094	0.100
778.500	7.406	0.100
778.600	-4.801	0.100
778.700	1.891	0.100
778.800	2.409	0.100
778.900	-9.389	0.100
779.000	-7.343	0.100
779.100	5.636	0.100
779.200	-3.822	0.100
779.300	-17.178	0.100
779.400	-5.017	0.100
779.500	-14.785	0.100
779.600	-14.388	0.100
779.700	-6.247	0.100
779.800	-6.086	0.100
779.900	-12.321	0.100
780.000	-13.093	0.100
780.100	6.614	0.100
780.200	2.374	0.100
780.300	-6.902	0.100
780.400	-4.132	0.100
780.500	23.469	0.100
780.600	8.753	0.100
780.700	0.385	0.100
780.800	15.456	0.100
780.900	17.107	0.100
781.000	9.214	0.100
781.100	17.369	0.100
781.200	19.803	0.100
781.300	11.834	0.100
781.400	12.843	0.100
781.500	21.752	0.100
781.600	21.756	0.100
781.700	8.378	0.100
781.800	23.835	0.100
781.900	18.704	0.100
782.000	26.667	0.100
782.100	18.450	0.100
782.200	8.263	0.100
782.300	11.575	0.100
782.400	5.402	0.100
782.500	7.263	0.100
782.600	11.457	0.100
782.700	12.972	0.100
782.800	22.247	0.100
782.900	26.116	0.100
783.000	5.548	0.100
783.100	14.546	0.100
783.200	18.441	0.100
783.300	8.540	0.100
783.400	20.120	0.100
783.500	2.482	0.100
783.600	14.467	0.100
783.700	13.494	0.100
783.800	9.171	0.100
783.900	13.028	0.100
784.000	2.129	0.100
784.100	7.771	0.100
784.200	16.227	0.100
784.300	13.968	0.100
784.400	-0.191	0.100
784.500	5.080	0.100
784.600	18.491	0.100
784.700	17.731	0.100
784.800	12.357	0.100
784.900	9.866	0.100
785.000	3.244	0.100
785.100	5.124	0.100
785.200	1.506	0.100
785.300	5.869	0.100
785.400	-2.356	0.100
785.500	3.540	0.100
785.600	14.959	0.100
785.700	11.363	0.100
785.800	5.734	0.100
785.900	-0.057	0.100
786.000	13.638	0.100
786.100	16.920	0.100
786.200	17.021	0.100
786.300	10.248	0.100
786.400	-2.784	0.100
786.500	7.176	0.100
786.600	10.102	0.100
786.700	8.319	0.100
786.800	9.275	0.100
786.900	10.703	0.100
787.000	-6.423	0.100
787.100	6.088	0.100
787.200	4.219	0.100
787.300	9.694	0.100
787.400	16.827	0.100
787.500	12.615	0.100
787.600	21.224	0.100
787.700	-2.442	0.100
787.800	13.082	0.100
787.900	9.876	0.100
788.000	3.424	0.100
788.100	-1.317	0.100
788.200	0.057	0.100
788.300	3.319	0.100
788.400	11.920	0.100
788.500	13.578	0.100
788.600	-1.842	0.100
788.700	6.483	0.100
788.800	4.839	0.100
788.900	11.813	0.100
789.000	10.404	0.100
789.100	-3.656	0.100
789.200	0.500	0.100
789.300	-3.637	0.100
789.400	4.718	0.100
789.500	10.385	0.100
789.600	9.299	0.100
789.700	4.078	0.100
789.800	-2.826	0.100
789.900	13.164	0.100
790.000	6.526	0.100
790.100	11.848	0.100
790.200	15.655	0.100
790.300	3.606	0.100
790.400	8.807	0.100
790.500	10.650	0.100
790.600	6.623	0.100
790.700	5.492	0.100
790.800	5.893	0.100
790.900	-3.832	0.100
791.000	3.806	0.100
791.100	2.345	0.100
791.200	8.689	0.100
791.300	-2.025	0.100
791.400	12.755	0.100
791.500	4.212	0.100
791.600	-6.029	0.100
791.700	-6.658	0.100
791.800	13.174	0.100
791.900	8.696	0.100
792.000	6.313	0.100
792.100	14.314	0.100
792.200	4.447	0.100
792.300	17.674	0.100
792.400	-4.092	0.100
792.500	-4.564	0.100
792.600	23.214	0.100
792.700	4.931	0.100
792.800	-1.934	0.100
792.900	4.059	0.100
793.000	1.810	0.100
793.100	11.232	0.100
793.200	6.474	0.100
793.300	14.531	0.100
793.400	-0.502	0.100
793.500	12.209	0.100
793.600	1.530	0.100
793.700	7.862	0.100
793.800	2.817	0.100
793.900	15.669	0.100
794.000	6.512	0.100
794.100	7.405	0.100
794.200	-0.899	0.100
794.300	13.046	0.100
794.400	20.221	0.100
794.500	8.562	0.100
794.600	7.827	0.100
794.700	0.160	0.100
794.800	10.293	0.100
794.900	-1.485	0.100
795.000	-10.310	0.100
795.100	13.164	0.100
795.200	6.077	0.100
795.300	5.610	0.100
795.400	12.543	0.100
795.500	-4.498	0.100
795.600	11.573	0.100
795.700	14.512	0.100
795.800	4.880	0.100
795.900	9.362	0.100
796.000	21.104	0.100
796.100	19.245	0.100
796.200	13.572	0.100
796.300	0.003	0.100
796.400	22.860	0.100
796.500	26.608	0.100
796.600	11.349	0.100
796.700	8.620	0.100
796.800	8.827	0.100
796.900	-10.365	0.100
797.000	5.223	0.100
797.100	20.733	0.100
797.200	0.940	0.100
797.300	9.996	0.100
797.400	1.590	0.100
797.500	3.564	0.100
797.600	19.016	0.100
797.700	19.118	0.100
797.800	20.965	0.100
797.900	1.998	0.100
798.000	12.064	0.100
798.100	1.271	0.100
798.200	11.153	0.100
798.300	26.966	0.100
798.400	22.673	0.100
798.500	19.082	0.100
798.600	7.621	0.100
798.700	17.811	0.100
798.800	15.486	0.100
798.900	11.308	0.100
799.000	-0.045	0.100
799.100	5.679	0.100
799.200	16.286	0.100
799.300	12.075	0.100
799.400	3.657	0.100
799.500	8.868	0.100
799.600	13.785	0.100
799.700	14.777	0.100
799.800	21.468	0.100
799.900	16.215	0.100
800.000	9.567	0.100
