time /s	I /nA	E /V
0.100	-26.383	0.100
0.200	-32.662	0.100
0.300	-15.582	0.100
0.400	-31.702	0.100
0.500	-34.336	0.100
0.600	-9.520	0.100
0.700	-16.454	0.100
0.800	-21.494	0.100
0.900	-29.815	0.100
1.000	-17.468	0.100
1.100	-12.948	0.100
1.200	-25.284	0.100
1.300	-13.920	0.100
1.400	-23.590	0.100
1.500	-23.771	0.100
1.600	-26.399	0.100
1.700	-33.989	0.100
1.800	-15.537	0.100
1.900	-31.982	0.100
2.000	-28.952	0.100
2.100	-12.366	0.100
2.200	-12.872	0.100
2.300	-21.365	0.100
2.400	-26.263	0.100
2.500	-28.385	0.100
2.600	-19.838	0.100
2.700	0.794	0.100
2.800	-19.286	0.100
2.900	-34.312	0.100
3.000	-10.228	0.100
3.100	-19.180	0.100
3.200	-30.139	0.100
3.300	-19.703	0.100
3.400	-20.257	0.100
3.500	-18.174	0.100
3.600	-13.984	0.100
3.700	-2.559	0.100
3.800	-12.277	0.100
3.900	-24.733	0.100
4.000	-24.614	0.100
4.100	-15.734	0.100
4.200	-27.343	0.100
4.300	-15.190	0.100
4.400	-33.328	0.100
4.500	-23.209	0.100
4.600	4.064	0.100
4.700	-24.378	0.100
4.800	-16.543	0.100
4.900	-19.024	0.100
5.000	-20.626	0.100
5.100	-20.559	0.100
5.200	-13.050	0.100
5.300	-16.968	0.100
5.400	-20.894	0.100
5.500	-29.899	0.100
5.600	-12.661	0.100
5.700	-30.017	0.100
5.800	-38.828	0.100
5.900	-15.127	0.100
6.000	-9.451	0.100
6.100	-22.143	0.100
6.200	-16.417	0.100
6.300	-25.069	0.100
6.400	-32.211	0.100
6.500	-13.737	0.100
6.600	-14.625	0.100
6.700	-18.801	0.100
6.800	-11.036	0.100
6.900	-22.930	0.100
7.000	-20.047	0.100
7.100	-15.664	0.100
7.200	-14.797	0.100
7.300	-25.448	0.100
7.400	-16.905	0.100
7.500	-37.328	0.100
7.600	-4.896	0.100
7.700	-13.687	0.100
7.800	-15.255	0.100
7.900	-22.681	0.100
8.000	-22.376	0.100
8.100	-12.805	0.100
8.200	-19.416	0.100
8.300	-45.539	0.100
8.400	-23.145	0.100
8.500	-13.921	0.100
8.600	-14.467	0.100
8.700	-17.470	0.100
8.800	-18.906	0.100
8.900	-17.845	0.100
9.000	-18.283	0.100
9.100	-17.745	0.100
9.200	-32.452	0.100
9.300	-21.319	0.100
9.400	-20.384	0.100
9.500	-19.229	0.100
9.600	-16.363	0.100
9.700	-26.958	0.100
9.800	-18.976	0.100
9.900	-10.733	0.100
10.000	-19.269	0.100
10.100	-17.507	0.100
10.200	-11.505	0.100
10.300	-21.080	0.100
10.400	-19.141	0.100
10.500	-18.865	0.100
10.600	-15.285	0.100
10.700	-13.229	0.100
10.800	-33.351	0.100
10.900	-10.362	0.100
11.000	-25.079	0.100
11.100	-23.045	0.100
11.200	-16.611	0.100
11.300	-18.356	0.100
11.400	-24.687	0.100
11.500	-7.300	0.100
11.600	-14.290	0.100
11.700	-17.702	0.100
11.800	-22.699	0.100
11.900	-23.897	0.100
12.000	-14.643	0.100
12.100	-20.548	0.100
12.200	-33.089	0.100
12.300	-11.047	0.100
12.400	-13.145	0.100
12.500	-17.404	0.100
12.600	-15.030	0.100
12.700	-18.707	0.100
12.800	-17.953	0.100
12.900	-21.908	0.100
13.000	-28.798	0.100
13.100	-18.490	0.100
13.200	-18.693	0.100
13.300	-26.826	0.100
13.400	-14.945	0.100
13.500	-15.474	0.100
13.600	-21.725	0.100
13.700	-25.886	0.100
13.800	-14.942	0.100
13.900	-21.264	0.100
14.000	-27.935	0.100
14.100	-10.574	0.100
14.200	-24.390	0.100
14.300	-9.995	0.100
14.400	-27.439	0.100
14.500	-2.014	0.100
14.600	-14.222	0.100
14.700	-8.251	0.100
14.800	-18.032	0.100
14.900	-20.236	0.100
15.000	-16.901	0.100
15.100	-28.878	0.100
15.200	-20.735	0.100
15.300	-13.381	0.100
15.400	-17.499	0.100
15.500	-32.231	0.100
15.600	-21.493	0.100
15.700	-18.856	0.100
15.800	-7.914	0.100
15.900	-39.405	0.100
16.000	-17.687	0.100
16.100	-19.781	0.100
16.200	-28.500	0.100
16.300	-42.907	0.100
16.400	-8.433	0.100
16.500	-22.917	0.100
16.600	-20.623	0.100
16.700	-16.382	0.100
16.800	-19.439	0.100
16.900	-21.559	0.100
17.000	-19.373	0.100
17.100	-4.060	0.100
17.200	-33.384	0.100
17.300	-12.354	0.100
17.400	-13.740	0.100
17.500	-19.803	0.100
17.600	-7.494	0.100
17.700	-21.995	0.100
17.800	-29.634	0.100
17.900	-18.895	0.100
18.000	-35.315	0.100
18.100	-22.415	0.100
18.200	-24.014	0.100
18.300	-15.691	0.100
18.400	-29.301	0.100
18.500	-24.589	0.100
18.600	-3.062	0.100
18.700	-15.233	0.100
18.800	-19.746	0.100
18.900	-2.819	0.100
19.000	-15.165	0.100
19.100	-23.368	0.100
19.200	-12.681	0.100
19.300	-12.885	0.100
19.400	-34.001	0.100
19.500	-28.083	0.100
19.600	-7.430	0.100
19.700	-13.147	0.100
19.800	-20.802	0.100
19.900	-14.740	0.100
20.000	-17.776	0.100
20.100	-22.571	0.100
20.200	-12.980	0.100
20.300	-16.226	0.100
20.400	-20.200	0.100
20.500	-22.517	0.100
20.600	-9.702	0.100
20.700	-19.994	0.100
20.800	-24.874	0.100
20.900	-12.602	0.100
21.000	-28.175	0.100
21.100	-14.607	0.100
21.200	-22.865	0.100
21.300	-12.974	0.100
21.400	-12.026	0.100
21.500	-11.625	0.100
21.600	-22.784	0.100
21.700	-2.787	0.100
21.800	-9.588	0.100
21.900	-28.105	0.100
22.000	-31.583	0.100
22.100	-21.594	0.100
22.200	-11.082	0.100
22.300	-23.525	0.100
22.400	-9.015	0.100
22.500	-25.703	0.100
22.600	-10.393	0.100
22.700	-18.075	0.100
22.800	-17.516	0.100
22.900	-21.693	0.100
23.000	-7.880	0.100
23.100	-25.128	0.100
23.200	-11.477	0.100
23.300	-29.659	0.100
23.400	-33.830	0.100
23.500	-7.549	0.100
23.600	-25.124	0.100
23.700	-17.279	0.100
23.800	-21.443	0.100
23.900	-12.763	0.100
24.000	-16.076	0.100
24.100	-21.184	0.100
24.200	-24.768	0.100
24.300	-21.520	0.100
24.400	-22.974	0.100
24.500	-16.377	0.100
24.600	-17.328	0.100
24.700	-14.592	0.100
24.800	-15.641	0.100
24.900	-23.948	0.100
25.000	-4.029	0.100
25.100	-24.357	0.100
25.200	-25.644	0.100
25.300	-7.364	0.100
25.400	-27.473	0.100
25.500	-22.580	0.100
25.600	-16.386	0.100
25.700	-20.479	0.100
25.800	-1.956	0.100
25.900	-11.566	0.100
26.000	-14.368	0.100
26.100	-25.343	0.100
26.200	-30.354	0.100
26.300	-12.512	0.100
26.400	-12.201	0.100
26.500	-16.157	0.100
26.600	-22.490	0.100
26.700	-13.323	0.100
26.800	-24.204	0.100
26.900	-9.445	0.100
27.000	-12.157	0.100
27.100	-23.832	0.100
27.200	-7.429	0.100
27.300	-21.877	0.100
27.400	-22.014	0.100
27.500	-17.405	0.100
27.600	-8.508	0.100
27.700	-11.262	0.100
27.800	-18.259	0.100
27.900	-24.382	0.100
28.000	-38.193	0.100
28.100	-17.905	0.100
28.200	-11.735	0.100
28.300	-7.638	0.100
28.400	-15.412	0.100
28.500	-23.304	0.100
28.600	-15.538	0.100
28.700	-19.664	0.100
28.800	-18.461	0.100
28.900	-12.989	0.100
29.000	-13.768	0.100
29.100	-17.960	0.100
29.200	-29.738	0.100
29.300	-17.340	0.100
29.400	-5.311	0.100
29.500	-22.767	0.100
29.600	-23.156	0.100
29.700	-11.630	0.100
29.800	-19.562	0.100
29.900	-22.646	0.100
30.000	-18.110	0.100
30.100	-19.549	0.100
30.200	-22.557	0.100
30.300	-5.390	0.100
30.400	-35.110	0.100
30.500	-22.227	0.100
30.600	-21.127	0.100
30.700	-10.630	0.100
30.800	-20.122	0.100
30.900	-26.344	0.100
31.000	-4.028	0.100
31.100	-30.235	0.100
31.200	-6.488	0.100
31.300	-25.105	0.100
31.400	-23.936	0.100
31.500	-14.157	0.100
31.600	-22.027	0.100
31.700	-14.102	0.100
31.800	-17.702	0.100
31.900	-14.810	0.100
32.000	-6.712	0.100
32.100	-28.515	0.100
32.200	-24.804	0.100
32.300	-5.882	0.100
32.400	-7.945	0.100
32.500	-30.750	0.100
32.600	-17.479	0.100
32.700	-4.220	0.100
32.800	-4.092	0.100
32.900	-13.658	0.100
33.000	-26.074	0.100
33.100	-21.069	0.100
33.200	-20.028	0.100
33.300	-16.825	0.100
33.400	-17.094	0.100
33.500	-19.555	0.100
33.600	-12.525	0.100
33.700	-16.114	0.100
33.800	-1.674	0.100
33.900	-12.837	0.100
34.000	-25.364	0.100
34.100	-8.555	0.100
34.200	-28.609	0.100
34.300	-2.292	0.100
34.400	-9.356	0.100
34.500	-19.495	0.100
34.600	-9.841	0.100
34.700	-17.582	0.100
34.800	-24.246	0.100
34.900	-14.464	0.100
35.000	-7.867	0.100
35.100	-4.206	0.100
35.200	-12.703	0.100
35.300	-23.297	0.100
35.400	-20.507	0.100
35.500	-5.242	0.100
35.600	-3.635	0.100
35.700	-19.015	0.100
35.800	-19.861	0.100
35.900	-8.132	0.100
36.000	-30.896	0.100
36.100	-7.956	0.100
36.200	-4.865	0.100
36.300	-5.782	0.100
36.400	-10.467	0.100
36.500	-37.013	0.100
36.600	-12.258	0.100
36.700	-12.032	0.100
36.800	-15.645	0.100
36.900	-3.079	0.100
37.000	-14.370	0.100
37.100	-19.484	0.100
37.200	0.210	0.100
37.300	-16.223	0.100
37.400	-3.598	0.100
37.500	-10.041	0.100
37.600	-3.318	0.100
37.700	-19.070	0.100
37.800	-12.904	0.100
37.900	-17.629	0.100
38.000	-6.974	0.100
38.100	-7.036	0.100
38.200	-10.730	0.100
38.300	-4.895	0.100
38.400	-11.429	0.100
38.500	-12.594	0.100
38.600	-13.581	0.100
38.700	-4.672	0.100
38.800	-18.071	0.100
38.900	-13.541	0.100
39.000	-18.625	0.100
39.100	2.674	0.100
39.200	-17.446	0.100
39.300	-16.122	0.100
39.400	-18.079	0.100
39.500	3.602	0.100
39.600	-3.144	0.100
39.700	1.065	0.100
39.800	-23.385	0.100
39.900	-23.207	0.100
40.000	-18.655	0.100
40.100	1.502	0.100
40.200	-10.187	0.100
40.300	-9.346	0.100
40.400	3.587	0.100
40.500	-22.108	0.100
40.600	0.033	0.100
40.700	-20.303	0.100
40.800	-5.155	0.100
40.900	0.582	0.100
41.000	-8.384	0.100
41.100	-11.064	0.100
41.200	-10.553	0.100
41.300	-18.261	0.100
41.400	-5.629	0.100
41.500	-7.445	0.100
41.600	-15.316	0.100
41.700	-13.172	0.100
41.800	-15.347	0.100
41.900	7.195	0.100
42.000	-10.028	0.100
42.100	-4.770	0.100
42.200	-4.869	0.100
42.300	-6.504	0.100
42.400	13.096	0.100
42.500	-3.913	0.100
42.600	-21.914	0.100
42.700	-2.643	0.100
42.800	-4.839	0.100
42.900	-7.953	0.100
43.000	-7.257	0.100
43.100	-16.577	0.100
43.200	-17.317	0.100
43.300	0.457	0.100
43.400	-22.811	0.100
43.500	-12.805	0.100
43.600	-15.199	0.100
43.700	-12.674	0.100
43.800	-2.704	0.100
43.900	-13.133	0.100
44.000	-6.573	0.100
44.100	-11.961	0.100
44.200	0.152	0.100
44.300	-11.342	0.100
44.400	-9.197	0.100
44.500	-2.773	0.100
44.600	-1.247	0.100
44.700	-10.544	0.100
44.800	-8.694	0.100
44.900	-16.696	0.100
45.000	-12.733	0.100
45.100	-4.979	0.100
45.200	2.919	0.100
45.300	-5.993	0.100
45.400	-0.983	0.100
45.500	-1.943	0.100
45.600	-14.048	0.100
45.700	-18.087	0.100
45.800	-6.062	0.100
45.900	3.785	0.100
46.000	-17.155	0.100
46.100	-17.317	0.100
46.200	0.010	0.100
46.300	-8.267	0.100
46.400	-13.761	0.100
46.500	-6.105	0.100
46.600	-4.086	0.100
46.700	-14.159	0.100
46.800	-10.540	0.100
46.900	-9.560	0.100
47.000	1.082	0.100
47.100	-16.255	0.100
47.200	-4.462	0.100
47.300	0.527	0.100
47.400	-12.941	0.100
47.500	-6.684	0.100
47.600	-15.153	0.100
47.700	-16.779	0.100
47.800	-13.292	0.100
47.900	-11.816	0.100
48.000	-8.829	0.100
48.100	-13.332	0.100
48.200	-13.383	0.100
48.300	-11.304	0.100
48.400	-7.027	0.100
48.500	-1.598	0.100
48.600	-1.568	0.100
48.700	-14.147	0.100
48.800	-15.899	0.100
48.900	-6.610	0.100
49.000	-13.067	0.100
49.100	16.725	0.100
49.200	-1.033	0.100
49.300	-5.773	0.100
49.400	-11.109	0.100
49.500	-9.267	0.100
49.600	-20.287	0.100
49.700	1.334	0.100
49.800	-14.630	0.100
49.900	-6.185	0.100
50.000	-3.642	0.100
50.100	-2.313	0.100
50.200	-27.088	0.100
50.300	-12.071	0.100
50.400	-9.003	0.100
50.500	-6.100	0.100
50.600	0.652	0.100
50.700	-12.632	0.100
50.800	-16.427	0.100
50.900	1.759	0.100
51.000	-11.657	0.100
51.100	-4.689	0.100
51.200	-2.423	0.100
51.300	-4.778	0.100
51.400	-8.798	0.100
51.500	-17.212	0.100
51.600	-9.321	0.100
51.700	-9.092	0.100
51.800	-3.833	0.100
51.900	-8.475	0.100
52.000	-3.282	0.100
52.100	-2.423	0.100
52.200	1.575	0.100
52.300	-32.900	0.100
52.400	-12.921	0.100
52.500	4.837	0.100
52.600	-16.256	0.100
52.700	1.980	0.100
52.800	-5.689	0.100
52.900	-8.763	0.100
53.000	-11.014	0.100
53.100	-7.514	0.100
53.200	-21.339	0.100
53.300	-21.211	0.100
53.400	-5.738	0.100
53.500	-0.623	0.100
53.600	-10.493	0.100
53.700	-0.158	0.100
53.800	-9.198	0.100
53.900	1.934	0.100
54.000	-8.587	0.100
54.100	-8.002	0.100
54.200	-14.336	0.100
54.300	-11.386	0.100
54.400	3.516	0.100
54.500	-14.592	0.100
54.600	-10.027	0.100
54.700	-17.449	0.100
54.800	9.450	0.100
54.900	-12.690	0.100
55.000	-8.798	0.100
55.100	-15.121	0.100
55.200	-8.794	0.100
55.300	-11.948	0.100
55.400	-0.751	0.100
55.500	-8.749	0.100
55.600	-2.003	0.100
55.700	3.940	0.100
55.800	-7.575	0.100
55.900	-20.334	0.100
56.000	-22.422	0.100
56.100	-9.571	0.100
56.200	-13.947	0.100
56.300	-9.676	0.100
56.400	-5.928	0.100
56.500	-0.629	0.100
56.600	-3.130	0.100
56.700	-6.251	0.100
56.800	-17.408	0.100
56.900	-17.611	0.100
57.000	0.208	0.100
57.100	-12.725	0.100
57.200	-7.826	0.100
57.300	-1.411	0.100
57.400	-4.895	0.100
57.500	-14.975	0.100
57.600	-7.059	0.100
57.700	-15.156	0.100
57.800	-13.802	0.100
57.900	-5.654	0.100
58.000	-15.534	0.100
58.100	-11.278	0.100
58.200	-13.032	0.100
58.300	-7.497	0.100
58.400	-8.468	0.100
58.500	-8.504	0.100
58.600	-9.631	0.100
58.700	-6.174	0.100
58.800	-9.922	0.100
58.900	-8.919	0.100
59.000	-18.806	0.100
59.100	-0.717	0.100
59.200	-2.351	0.100
59.300	-11.071	0.100
59.400	-14.119	0.100
59.500	-8.953	0.100
59.600	-15.143	0.100
59.700	-17.500	0.100
59.800	1.509	0.100
59.900	-11.765	0.100
60.000	-0.750	0.100
60.100	-8.868	0.100
60.200	-10.008	0.100
60.300	-12.721	0.100
60.400	-5.029	0.100
60.500	-14.423	0.100
60.600	-7.845	0.100
60.700	-19.358	0.100
60.800	5.451	0.100
60.900	-18.336	0.100
61.000	-21.185	0.100
61.100	9.400	0.100
61.200	2.390	0.100
61.300	-7.568	0.100
61.400	-1.273	0.100
61.500	-11.851	0.100
61.600	-8.359	0.100
61.700	1.594	0.100
61.800	-10.966	0.100
61.900	-28.299	0.100
62.000	-8.866	0.100
62.100	-3.429	0.100
62.200	-4.173	0.100
62.300	-3.499	0.100
62.400	-1.089	0.100
62.500	-12.364	0.100
62.600	-7.545	0.100
62.700	-13.172	0.100
62.800	-14.283	0.100
62.900	-21.870	0.100
63.000	-12.068	0.100
63.100	-17.189	0.100
63.200	-4.483	0.100
63.300	-8.352	0.100
63.400	-13.418	0.100
63.500	-11.634	0.100
63.600	4.850	0.100
63.700	-11.580	0.100
63.800	-4.655	0.100
63.900	-12.184	0.100
64.000	-17.208	0.100
64.100	-10.875	0.100
64.200	-17.922	0.100
64.300	6.794	0.100
64.400	-4.245	0.100
64.500	-11.435	0.100
64.600	-17.094	0.100
64.700	-15.440	0.100
64.800	-11.467	0.100
64.900	-10.123	0.100
65.000	-2.003	0.100
65.100	-3.865	0.100
65.200	-15.616	0.100
65.300	-20.496	0.100
65.400	-1.106	0.100
65.500	-13.188	0.100
65.600	-8.365	0.100
65.700	-22.758	0.100
65.800	-11.762	0.100
65.900	-5.321	0.100
66.000	-13.793	0.100
66.100	-11.089	0.100
66.200	-19.666	0.100
66.300	4.824	0.100
66.400	-2.643	0.100
66.500	-2.442	0.100
66.600	-18.551	0.100
66.700	-14.397	0.100
66.800	-2.665	0.100
66.900	-12.947	0.100
67.000	-19.789	0.100
67.100	-11.293	0.100
67.200	0.807	0.100
67.300	-17.748	0.100
67.400	-9.751	0.100
67.500	-13.371	0.100
67.600	-24.231	0.100
67.700	11.659	0.100
67.800	-9.544	0.100
67.900	-19.249	0.100
68.000	-1.822	0.100
68.100	-14.238	0.100
68.200	-4.937	0.100
68.300	1.226	0.100
68.400	-5.116	0.100
68.500	-2.557	0.100
68.600	-5.750	0.100
68.700	-14.388	0.100
68.800	2.648	0.100
68.900	-9.069	0.100
69.000	-26.187	0.100
69.100	-13.434	0.100
69.200	-9.200	0.100
69.300	-9.990	0.100
69.400	-10.983	0.100
69.500	-2.918	0.100
69.600	-12.908	0.100
69.700	-18.848	0.100
69.800	-3.913	0.100
69.900	0.285	0.100
70.000	-4.149	0.100
70.100	-6.990	0.100
70.200	-17.961	0.100
70.300	-9.230	0.100
70.400	-20.437	0.100
70.500	4.765	0.100
70.600	-7.461	0.100
70.700	-15.334	0.100
70.800	-14.718	0.100
70.900	-7.445	0.100
71.000	-12.105	0.100
71.100	-22.500	0.100
71.200	-12.115	0.100
71.300	-9.906	0.100
71.400	-14.158	0.100
71.500	-20.805	0.100
71.600	-26.933	0.100
71.700	-10.788	0.100
71.800	-11.008	0.100
71.900	1.689	0.100
72.000	-27.354	0.100
72.100	-7.297	0.100
72.200	-12.924	0.100
72.300	-20.764	0.100
72.400	-8.113	0.100
72.500	-9.481	0.100
72.600	-15.051	0.100
72.700	-8.126	0.100
72.800	-26.638	0.100
72.900	-3.686	0.100
73.000	3.839	0.100
73.100	-9.868	0.100
73.200	-17.838	0.100
73.300	-2.779	0.100
73.400	-15.091	0.100
73.500	-7.147	0.100
73.600	-20.060	0.100
73.700	3.121	0.100
73.800	-3.485	0.100
73.900	-14.271	0.100
74.000	-9.758	0.100
74.100	-2.188	0.100
74.200	-25.180	0.100
74.300	-9.089	0.100
74.400	-17.654	0.100
74.500	-2.205	0.100
74.600	-16.268	0.100
74.700	-2.410	0.100
74.800	-23.161	0.100
74.900	-14.776	0.100
75.000	-8.526	0.100
75.100	-2.861	0.100
75.200	-0.614	0.100
75.300	-20.614	0.100
75.400	-9.700	0.100
75.500	-0.179	0.100
75.600	-15.763	0.100
75.700	-15.465	0.100
75.800	-14.123	0.100
75.900	-1.776	0.100
76.000	-13.452	0.100
76.100	-12.645	0.100
76.200	-10.254	0.100
76.300	1.401	0.100
76.400	-3.258	0.100
76.500	2.252	0.100
76.600	-15.398	0.100
76.700	-11.542	0.100
76.800	-16.848	0.100
76.900	-3.457	0.100
77.000	-18.337	0.100
77.100	-6.507	0.100
77.200	-7.458	0.100
77.300	-15.864	0.100
77.400	-4.077	0.100
77.500	4.168	0.100
77.600	-4.350	0.100
77.700	-9.757	0.100
77.800	-2.711	0.100
77.900	-17.840	0.100
78.000	-28.890	0.100
78.100	-8.522	0.100
78.200	-4.984	0.100
78.300	-4.305	0.100
78.400	-14.010	0.100
78.500	-8.064	0.100
78.600	-1.028	0.100
78.700	-15.671	0.100
78.800	-14.505	0.100
78.900	-7.990	0.100
79.000	-4.858	0.100
79.100	-1.254	0.100
79.200	-17.778	0.100
79.300	-6.179	0.100
79.400	-9.331	0.100
79.500	-16.994	0.100
79.600	-15.290	0.100
79.700	-3.088	0.100
79.800	-21.353	0.100
79.900	-12.437	0.100
80.000	1.640	0.100
80.100	-16.855	0.100
80.200	-3.530	0.100
80.300	-15.745	0.100
80.400	-15.087	0.100
80.500	-14.296	0.100
80.600	-8.849	0.100
80.700	-5.619	0.100
80.800	-20.112	0.100
80.900	-23.181	0.100
81.000	-7.590	0.100
81.100	-11.523	0.100
81.200	-1.545	0.100
81.300	-14.261	0.100
81.400	-6.446	0.100
81.500	-12.373	0.100
81.600	-19.063	0.100
81.700	-1.815	0.100
81.800	-12.096	0.100
81.900	-3.717	0.100
82.000	-3.701	0.100
82.100	-8.122	0.100
82.200	-9.154	0.100
82.300	-6.024	0.100
82.400	-3.184	0.100
82.500	-14.662	0.100
82.600	-17.941	0.100
82.700	-13.889	0.100
82.800	-0.589	0.100
82.900	-6.924	0.100
83.000	-5.934	0.100
83.100	-16.997	0.100
83.200	-14.939	0.100
83.300	-14.484	0.100
83.400	-8.957	0.100
83.500	-7.643	0.100
83.600	-4.027	0.100
83.700	-7.580	0.100
83.800	-12.838	0.100
83.900	-1.196	0.100
84.000	11.017	0.100
84.100	-1.162	0.100
84.200	-9.035	0.100
84.300	-17.044	0.100
84.400	-11.091	0.100
84.500	-20.003	0.100
84.600	-15.500	0.100
84.700	1.712	0.100
84.800	-5.538	0.100
84.900	-2.757	0.100
85.000	-14.411	0.100
85.100	-17.471	0.100
85.200	-13.596	0.100
85.300	-9.397	0.100
85.400	-5.065	0.100
85.500	-17.743	0.100
85.600	-17.469	0.100
85.700	-10.613	0.100
85.800	-20.190	0.100
85.900	-12.211	0.100
86.000	-3.787	0.100
86.100	-6.388	0.100
86.200	-11.662	0.100
86.300	-11.435	0.100
86.400	4.566	0.100
86.500	-17.394	0.100
86.600	-18.181	0.100
86.700	-16.264	0.100
86.800	-11.497	0.100
86.900	-2.936	0.100
87.000	-9.936	0.100
87.100	-7.955	0.100
87.200	-14.383	0.100
87.300	-1.689	0.100
87.400	-3.176	0.100
87.500	-14.028	0.100
87.600	-7.715	0.100
87.700	-10.866	0.100
87.800	-20.024	0.100
87.900	-10.903	0.100
88.000	1.813	0.100
88.100	-8.916	0.100
88.200	-8.443	0.100
88.300	-12.851	0.100
88.400	-19.960	0.100
88.500	-7.871	0.100
88.600	-11.300	0.100
88.700	-9.730	0.100
88.800	-19.349	0.100
88.900	4.722	0.100
89.000	-13.150	0.100
89.100	-5.544	0.100
89.200	-6.696	0.100
89.300	-23.160	0.100
89.400	2.176	0.100
89.500	-13.519	0.100
89.600	-12.811	0.100
89.700	-4.659	0.100
89.800	-14.856	0.100
89.900	-5.675	0.100
90.000	-13.232	0.100
90.100	-19.138	0.100
90.200	-15.591	0.100
90.300	12.673	0.100
90.400	-10.322	0.100
90.500	-12.606	0.100
90.600	-0.665	0.100
90.700	-13.481	0.100
90.800	0.061	0.100
90.900	-4.146	0.100
91.000	-14.271	0.100
91.100	-17.628	0.100
91.200	-9.258	0.100
91.300	-5.567	0.100
91.400	-6.174	0.100
91.500	-9.894	0.100
91.600	-6.751	0.100
91.700	-5.048	0.100
91.800	-0.614	0.100
91.900	-0.150	0.100
92.000	-16.906	0.100
92.100	-14.339	0.100
92.200	0.615	0.100
92.300	-12.013	0.100
92.400	-0.921	0.100
92.500	-9.322	0.100
92.600	-17.428	0.100
92.700	-16.402	0.100
92.800	-7.462	0.100
92.900	-16.902	0.100
93.000	-27.267	0.100
93.100	7.093	0.100
93.200	-2.889	0.100
93.300	-11.011	0.100
93.400	-12.689	0.100
93.500	-5.369	0.100
93.600	-9.819	0.100
93.700	-13.939	0.100
93.800	-13.592	0.100
93.900	-10.091	0.100
94.000	-13.465	0.100
94.100	-1.966	0.100
94.200	-13.843	0.100
94.300	-14.412	0.100
94.400	-6.541	0.100
94.500	-7.531	0.100
94.600	-7.990	0.100
94.700	-22.914	0.100
94.800	-36.398	0.100
94.900	-17.273	0.100
95.000	-21.915	0.100
95.100	-11.721	0.100
95.200	-9.338	0.100
95.300	-18.951	0.100
95.400	-8.192	0.100
95.500	-17.711	0.100
95.600	3.476	0.100
95.700	-15.395	0.100
95.800	-12.124	0.100
95.900	-12.973	0.100
96.000	-16.329	0.100
96.100	-20.639	0.100
96.200	-9.036	0.100
96.300	-27.654	0.100
96.400	-26.761	0.100
96.500	-17.093	0.100
96.600	-3.962	0.100
96.700	-7.775	0.100
96.800	-23.786	0.100
96.900	-8.091	0.100
97.000	-12.944	0.100
97.100	-18.948	0.100
97.200	-4.721	0.100
97.300	-14.537	0.100
97.400	-23.306	0.100
97.500	-16.104	0.100
97.600	-15.079	0.100
97.700	-30.298	0.100
97.800	-15.763	0.100
97.900	-6.736	0.100
98.000	-5.714	0.100
98.100	-7.009	0.100
98.200	-15.498	0.100
98.300	-22.715	0.100
98.400	-12.120	0.100
98.500	-5.305	0.100
98.600	0.990	0.100
98.700	-11.465	0.100
98.800	-34.754	0.100
98.900	1.317	0.100
99.000	-24.689	0.100
99.100	-9.300	0.100
99.200	-10.475	0.100
99.300	-19.997	0.100
99.400	-27.202	0.100
99.500	-0.492	0.100
99.600	-1.798	0.100
99.700	3.718	0.100
99.800	-15.392	0.100
99.900	-16.670	0.100
100.000	-21.191	0.100
100.100	-23.585	0.100
100.200	-0.264	0.100
100.300	-0.598	0.100
100.400	-28.370	0.100
100.500	-38.830	0.100
100.600	-19.286	0.100
100.700	-10.591	0.100
100.800	-12.661	0.100
100.900	-16.194	0.100
101.000	-15.013	0.100
101.100	-19.974	0.100
101.200	-16.550	0.100
101.300	-9.432	0.100
101.400	-15.138	0.100
101.500	-40.799	0.100
101.600	-23.273	0.100
101.700	-7.444	0.100
101.800	3.390	0.100
101.900	-22.300	0.100
102.000	-22.462	0.100
102.100	-5.072	0.100
102.200	-21.877	0.100
102.300	-14.920	0.100
102.400	-17.370	0.100
102.500	-17.510	0.100
102.600	-23.124	0.100
102.700	-11.850	0.100
102.800	-23.458	0.100
102.900	-4.580	0.100
103.000	-22.416	0.100
103.100	-11.035	0.100
103.200	-10.858	0.100
103.300	-8.955	0.100
103.400	-9.811	0.100
103.500	-16.615	0.100
103.600	-4.500	0.100
103.700	-15.317	0.100
103.800	-11.184	0.100
103.900	-25.650	0.100
104.000	-23.151	0.100
104.100	-5.826	0.100
104.200	-14.366	0.100
104.300	-14.875	0.100
104.400	-16.645	0.100
104.500	-13.329	0.100
104.600	-0.941	0.100
104.700	-26.688	0.100
104.800	-7.731	0.100
104.900	-27.301	0.100
105.000	-22.757	0.100
105.100	-23.154	0.100
105.200	-5.875	0.100
105.300	-25.144	0.100
105.400	-10.354	0.100
105.500	-9.274	0.100
105.600	-13.509	0.100
105.700	-13.489	0.100
105.800	-18.803	0.100
105.900	-16.228	0.100
106.000	-39.382	0.100
106.100	-9.531	0.100
106.200	-13.879	0.100
106.300	-8.845	0.100
106.400	-12.297	0.100
106.500	-22.653	0.100
106.600	-12.070	0.100
106.700	-8.263	0.100
106.800	-13.316	0.100
106.900	-17.592	0.100
107.000	-5.564	0.100
107.100	-16.161	0.100
107.200	-26.912	0.100
107.300	-6.702	0.100
107.400	-10.048	0.100
107.500	-18.069	0.100
107.600	-14.816	0.100
107.700	-15.751	0.100
107.800	-3.654	0.100
107.900	-8.509	0.100
108.000	-31.744	0.100
108.100	-8.329	0.100
108.200	-6.880	0.100
108.300	-17.446	0.100
108.400	-18.464	0.100
108.500	-9.832	0.100
108.600	-21.910	0.100
108.700	-17.698	0.100
108.800	-21.589	0.100
108.900	-4.006	0.100
109.000	5.708	0.100
109.100	-11.409	0.100
109.200	-11.839	0.100
109.300	-26.738	0.100
109.400	-15.596	0.100
109.500	-5.838	0.100
109.600	-19.137	0.100
109.700	-12.210	0.100
109.800	-3.787	0.100
109.900	-17.588	0.100
110.000	-27.615	0.100
110.100	-22.817	0.100
110.200	-0.295	0.100
110.300	-11.726	0.100
110.400	-17.206	0.100
110.500	-24.101	0.100
110.600	-0.459	0.100
110.700	-12.376	0.100
110.800	-10.705	0.100
110.900	-13.685	0.100
111.000	-30.661	0.100
111.100	-11.883	0.100
111.200	-14.118	0.100
111.300	-11.652	0.100
111.400	-23.076	0.100
111.500	-21.044	0.100
111.600	-11.451	0.100
111.700	-12.921	0.100
111.800	-14.330	0.100
111.900	-15.165	0.100
112.000	-23.003	0.100
112.100	-15.802	0.100
112.200	-14.048	0.100
112.300	-14.057	0.100
112.400	-16.955	0.100
112.500	-15.996	0.100
112.600	-10.159	0.100
112.700	-27.540	0.100
112.800	-16.059	0.100
112.900	-9.481	0.100
113.000	-21.389	0.100
113.100	-10.048	0.100
113.200	-18.739	0.100
113.300	-16.073	0.100
113.400	-19.667	0.100
113.500	-14.867	0.100
113.600	-16.387	0.100
113.700	-13.201	0.100
113.800	-17.826	0.100
113.900	-8.990	0.100
114.000	-5.695	0.100
114.100	-17.324	0.100
114.200	-24.778	0.100
114.300	-17.782	0.100
114.400	-7.229	0.100
114.500	-3.099	0.100
114.600	-18.231	0.100
114.700	-23.411	0.100
114.800	-19.448	0.100
114.900	-14.362	0.100
115.000	-21.043	0.100
115.100	-7.590	0.100
115.200	-17.639	0.100
115.300	-24.599	0.100
115.400	-20.316	0.100
115.500	-17.770	0.100
115.600	-2.306	0.100
115.700	-4.196	0.100
115.800	-14.298	0.100
115.900	-5.971	0.100
116.000	-12.400	0.100
116.100	-20.987	0.100
116.200	-13.140	0.100
116.300	-12.557	0.100
116.400	-26.623	0.100
116.500	-11.796	0.100
116.600	-7.930	0.100
116.700	-0.339	0.100
116.800	-20.459	0.100
116.900	-8.028	0.100
117.000	-27.034	0.100
117.100	-9.484	0.100
117.200	-7.236	0.100
117.300	-26.521	0.100
117.400	-8.502	0.100
117.500	-21.375	0.100
117.600	-24.507	0.100
117.700	-17.231	0.100
117.800	-7.612	0.100
117.900	-20.872	0.100
118.000	-18.711	0.100
118.100	-21.844	0.100
118.200	-8.360	0.100
118.300	0.418	0.100
118.400	-17.692	0.100
118.500	1.257	0.100
118.600	-10.718	0.100
118.700	-22.314	0.100
118.800	-13.651	0.100
118.900	-29.656	0.100
119.000	-9.147	0.100
119.100	-3.110	0.100
119.200	-26.147	0.100
119.300	-7.676	0.100
119.400	-21.144	0.100
119.500	-30.857	0.100
119.600	-4.283	0.100
119.700	-16.833	0.100
119.800	-30.037	0.100
119.900	-7.065	0.100
120.000	-12.405	0.100
120.100	-28.591	0.100
120.200	-1.304	0.100
120.300	-12.834	0.100
120.400	-11.379	0.100
120.500	-7.667	0.100
120.600	-14.966	0.100
120.700	-14.903	0.100
120.800	-13.985	0.100
120.900	-21.894	0.100
121.000	-17.299	0.100
121.100	-10.408	0.100
121.200	-17.655	0.100
121.300	-15.283	0.100
121.400	-12.834	0.100
121.500	-21.714	0.100
121.600	-13.722	0.100
121.700	-13.681	0.100
121.800	-8.971	0.100
121.900	-25.623	0.100
122.000	-23.304	0.100
122.100	-8.143	0.100
122.200	-14.778	0.100
122.300	-22.105	0.100
122.400	-16.801	0.100
122.500	-9.640	0.100
122.600	-16.357	0.100
122.700	-22.853	0.100
122.800	-14.264	0.100
122.900	-25.506	0.100
123.000	-24.654	0.100
123.100	-5.374	0.100
123.200	-11.024	0.100
123.300	-18.137	0.100
123.400	-19.915	0.100
123.500	1.613	0.100
123.600	-15.233	0.100
123.700	-11.084	0.100
123.800	-10.986	0.100
123.900	-7.526	0.100
124.000	-17.068	0.100
124.100	-15.786	0.100
124.200	-7.876	0.100
124.300	-19.812	0.100
124.400	-21.049	0.100
124.500	-24.280	0.100
124.600	-8.389	0.100
124.700	-9.677	0.100
124.800	-11.717	0.100
124.900	-6.086	0.100
125.000	-9.801	0.100
125.100	-29.040	0.100
125.200	-14.117	0.100
125.300	-21.085	0.100
125.400	-13.757	0.100
125.500	-21.696	0.100
125.600	-9.195	0.100
125.700	-16.172	0.100
125.800	-4.678	0.100
125.900	-24.812	0.100
126.000	-8.900	0.100
126.100	-36.840	0.100
126.200	-18.689	0.100
126.300	-10.581	0.100
126.400	-14.735	0.100
126.500	-23.149	0.100
126.600	-2.747	0.100
126.700	-18.446	0.100
126.800	-15.680	0.100
126.900	-16.785	0.100
127.000	-19.314	0.100
127.100	-16.492	0.100
127.200	-4.853	0.100
127.300	-16.562	0.100
127.400	-20.580	0.100
127.500	-8.686	0.100
127.600	-19.405	0.100
127.700	-12.003	0.100
127.800	-10.791	0.100
127.900	-16.314	0.100
128.000	-13.221	0.100
128.100	-21.229	0.100
128.200	-21.476	0.100
128.300	-0.628	0.100
128.400	-14.903	0.100
128.500	-9.396	0.100
128.600	-15.756	0.100
128.700	-19.361	0.100
128.800	-13.169	0.100
128.900	-12.938	0.100
129.000	-9.157	0.100
129.100	-11.230	0.100
129.200	-6.044	0.100
129.300	-25.147	0.100
129.400	-20.994	0.100
129.500	-36.051	0.100
129.600	-7.863	0.100
129.700	-11.075	0.100
129.800	-27.030	0.100
129.900	-23.107	0.100
130.000	-10.809	0.100
130.100	-12.751	0.100
130.200	-12.311	0.100
130.300	-13.572	0.100
130.400	-14.731	0.100
130.500	-9.077	0.100
130.600	-14.954	0.100
130.700	-23.326	0.100
130.800	-13.723	0.100
130.900	-15.864	0.100
131.000	-19.384	0.100
131.100	-8.540	0.100
131.200	-13.486	0.100
131.300	-31.215	0.100
131.400	-19.165	0.100
131.500	-5.613	0.100
131.600	-8.369	0.100
131.700	-1.294	0.100
131.800	-25.928	0.100
131.900	-14.453	0.100
132.000	-7.297	0.100
132.100	-9.252	0.100
132.200	-4.979	0.100
132.300	-7.316	0.100
132.400	-10.073	0.100
132.500	-18.192	0.100
132.600	-19.060	0.100
132.700	-4.064	0.100
132.800	-10.120	0.100
132.900	-26.782	0.100
133.000	-20.240	0.100
133.100	-4.310	0.100
133.200	-0.287	0.100
133.300	-13.780	0.100
133.400	-18.805	0.100
133.500	-11.993	0.100
133.600	-11.039	0.100
133.700	3.417	0.100
133.800	-27.254	0.100
133.900	0.408	0.100
134.000	-16.545	0.100
134.100	-22.056	0.100
134.200	-13.473	0.100
134.300	-16.551	0.100
134.400	-3.389	0.100
134.500	-11.472	0.100
134.600	-2.597	0.100
134.700	-22.732	0.100
134.800	-10.239	0.100
134.900	-13.486	0.100
135.000	-16.157	0.100
135.100	-11.530	0.100
135.200	-19.653	0.100
135.300	0.183	0.100
135.400	-11.967	0.100
135.500	-16.038	0.100
135.600	-11.485	0.100
135.700	-21.305	0.100
135.800	-4.731	0.100
135.900	-5.777	0.100
136.000	-9.557	0.100
136.100	-8.443	0.100
136.200	-19.703	0.100
136.300	-6.472	0.100
136.400	-22.689	0.100
136.500	-10.387	0.100
136.600	-25.432	0.100
136.700	-6.379	0.100
136.800	-14.192	0.100
136.900	-0.235	0.100
137.000	-15.566	0.100
137.100	-23.270	0.100
137.200	-12.284	0.100
137.300	-9.310	0.100
137.400	-18.437	0.100
137.500	-23.296	0.100
137.600	-18.426	0.100
137.700	-1.220	0.100
137.800	-18.993	0.100
137.900	-4.090	0.100
138.000	-21.980	0.100
138.100	-19.385	0.100
138.200	-14.285	0.100
138.300	-10.523	0.100
138.400	-3.629	0.100
138.500	-7.525	0.100
138.600	-17.204	0.100
138.700	-8.595	0.100
138.800	-8.451	0.100
138.900	1.251	0.100
139.000	-21.536	0.100
139.100	-12.682	0.100
139.200	-19.363	0.100
139.300	-18.366	0.100
139.400	-12.309	0.100
139.500	1.347	0.100
139.600	-18.606	0.100
139.700	-6.522	0.100
139.800	-14.601	0.100
139.900	-3.937	0.100
140.000	-13.014	0.100
140.100	-14.719	0.100
140.200	-14.851	0.100
140.300	-4.728	0.100
140.400	-18.453	0.100
140.500	-17.632	0.100
140.600	-21.082	0.100
140.700	-7.953	0.100
140.800	-24.416	0.100
140.900	-0.716	0.100
141.000	-15.874	0.100
141.100	-26.108	0.100
141.200	-4.538	0.100
141.300	-16.221	0.100
141.400	-5.563	0.100
141.500	-15.903	0.100
141.600	-7.488	0.100
141.700	-20.231	0.100
141.800	4.308	0.100
141.900	-2.420	0.100
142.000	-9.776	0.100
142.100	-14.608	0.100
142.200	-13.587	0.100
142.300	-0.780	0.100
142.400	-8.451	0.100
142.500	-30.464	0.100
142.600	-6.052	0.100
142.700	-19.827	0.100
142.800	-10.348	0.100
142.900	-12.823	0.100
143.000	-12.545	0.100
143.100	-7.399	0.100
143.200	-34.411	0.100
143.300	-4.873	0.100
143.400	-5.445	0.100
143.500	-11.093	0.100
143.600	-13.142	0.100
143.700	-2.820	0.100
143.800	-5.150	0.100
143.900	-22.077	0.100
144.000	-1.645	0.100
144.100	0.523	0.100
144.200	-28.270	0.100
144.300	-11.531	0.100
144.400	-6.243	0.100
144.500	-24.161	0.100
144.600	-13.759	0.100
144.700	-19.701	0.100
144.800	-8.845	0.100
144.900	5.129	0.100
145.000	-27.279	0.100
145.100	-20.432	0.100
145.200	1.120	0.100
145.300	-27.095	0.100
145.400	-1.048	0.100
145.500	-8.159	0.100
145.600	-19.308	0.100
145.700	-11.425	0.100
145.800	-16.646	0.100
145.900	-13.609	0.100
146.000	-9.438	0.100
146.100	-18.166	0.100
146.200	-17.919	0.100
146.300	-9.599	0.100
146.400	-7.196	0.100
146.500	-10.921	0.100
146.600	-18.126	0.100
146.700	-16.102	0.100
146.800	-12.622	0.100
146.900	-16.187	0.100
147.000	-15.313	0.100
147.100	-13.829	0.100
147.200	-21.334	0.100
147.300	4.229	0.100
147.400	-0.321	0.100
147.500	-16.819	0.100
147.600	1.036	0.100
147.700	-33.625	0.100
147.800	-6.500	0.100
147.900	-17.031	0.100
148.000	-19.788	0.100
148.100	-5.176	0.100
148.200	-11.210	0.100
148.300	-16.187	0.100
148.400	-7.437	0.100
148.500	-10.346	0.100
148.600	-12.513	0.100
148.700	-3.226	0.100
148.800	-14.670	0.100
148.900	-16.123	0.100
149.000	-21.753	0.100
149.100	-8.051	0.100
149.200	3.389	0.100
149.300	-9.089	0.100
149.400	-14.328	0.100
149.500	-18.686	0.100
149.600	-5.931	0.100
149.700	-4.303	0.100
149.800	-18.614	0.100
149.900	-15.187	0.100
150.000	-15.637	0.100
150.100	-12.948	0.100
150.200	-6.386	0.100
150.300	-18.169	0.100
150.400	2.443	0.100
150.500	-5.756	0.100
150.600	-17.064	0.100
150.700	-5.854	0.100
150.800	-8.027	0.100
150.900	-20.408	0.100
151.000	-12.470	0.100
151.100	-3.384	0.100
151.200	-14.393	0.100
151.300	-12.289	0.100
151.400	-11.501	0.100
151.500	-5.508	0.100
151.600	-11.132	0.100
151.700	-17.530	0.100
151.800	-10.414	0.100
151.900	-6.584	0.100
152.000	-15.439	0.100
152.100	-16.397	0.100
152.200	-17.238	0.100
152.300	-3.354	0.100
152.400	-15.755	0.100
152.500	-23.416	0.100
152.600	1.879	0.100
152.700	1.311	0.100
152.800	-9.884	0.100
152.900	-23.689	0.100
153.000	-7.640	0.100
153.100	-19.340	0.100
153.200	-18.687	0.100
153.300	-11.675	0.100
153.400	-9.967	0.100
153.500	-12.823	0.100
153.600	-13.919	0.100
153.700	-22.518	0.100
153.800	-13.962	0.100
153.900	-12.166	0.100
154.000	-29.290	0.100
154.100	-8.537	0.100
154.200	-9.102	0.100
154.300	-1.708	0.100
154.400	-7.261	0.100
154.500	-4.725	0.100
154.600	-21.444	0.100
154.700	-14.566	0.100
154.800	-32.500	0.100
154.900	-3.972	0.100
155.000	-20.527	0.100
155.100	-12.353	0.100
155.200	-15.214	0.100
155.300	-15.305	0.100
155.400	-5.189	0.100
155.500	-18.358	0.100
155.600	-3.232	0.100
155.700	-3.413	0.100
155.800	-23.488	0.100
155.900	-12.043	0.100
156.000	-7.410	0.100
156.100	-23.822	0.100
156.200	-3.432	0.100
156.300	-15.991	0.100
156.400	-11.725	0.100
156.500	1.988	0.100
156.600	-9.126	0.100
156.700	-14.712	0.100
156.800	-24.071	0.100
156.900	-9.790	0.100
157.000	-12.427	0.100
157.100	-14.147	0.100
157.200	-15.547	0.100
157.300	-14.656	0.100
157.400	-17.160	0.100
157.500	-9.175	0.100
157.600	-10.974	0.100
157.700	-12.324	0.100
157.800	-18.258	0.100
157.900	8.872	0.100
158.000	-13.068	0.100
158.100	-10.115	0.100
158.200	-4.634	0.100
158.300	-14.901	0.100
158.400	-8.472	0.100
158.500	-9.935	0.100
158.600	-5.268	0.100
158.700	-12.693	0.100
158.800	-15.793	0.100
158.900	-17.214	0.100
159.000	-22.131	0.100
159.100	-0.669	0.100
159.200	-16.726	0.100
159.300	-9.941	0.100
159.400	-20.697	0.100
159.500	-13.513	0.100
159.600	-6.822	0.100
159.700	-21.632	0.100
159.800	-13.390	0.100
159.900	-16.055	0.100
160.000	-14.399	0.100
160.100	-10.774	0.100
160.200	2.578	0.100
160.300	-2.521	0.100
160.400	-17.977	0.100
160.500	-17.929	0.100
160.600	-26.353	0.100
160.700	0.447	0.100
160.800	-18.507	0.100
160.900	-15.442	0.100
161.000	-10.504	0.100
161.100	-8.114	0.100
161.200	-17.409	0.100
161.300	-4.959	0.100
161.400	-27.603	0.100
161.500	11.038	0.100
161.600	-14.307	0.100
161.700	-20.579	0.100
161.800	-11.614	0.100
161.900	-5.303	0.100
162.000	-15.146	0.100
162.100	-19.435	0.100
162.200	-12.931	0.100
162.300	-18.055	0.100
162.400	-13.481	0.100
162.500	-8.260	0.100
162.600	-8.935	0.100
162.700	-16.069	0.100
162.800	-11.519	0.100
162.900	-4.580	0.100
163.000	-1.834	0.100
163.100	-15.190	0.100
163.200	-22.203	0.100
163.300	-3.770	0.100
163.400	-10.044	0.100
163.500	-4.397	0.100
163.600	-2.684	0.100
163.700	-9.829	0.100
163.800	-29.050	0.100
163.900	-6.797	0.100
164.000	-2.143	0.100
164.100	-5.941	0.100
164.200	-16.757	0.100
164.300	-14.803	0.100
164.400	-7.724	0.100
164.500	-15.551	0.100
164.600	-3.032	0.100
164.700	-27.327	0.100
164.800	-6.959	0.100
164.900	-0.915	0.100
165.000	-19.826	0.100
165.100	-20.067	0.100
165.200	-15.355	0.100
165.300	-5.429	0.100
165.400	-5.744	0.100
165.500	-15.660	0.100
165.600	-17.188	0.100
165.700	-5.979	0.100
165.800	-5.041	0.100
165.900	-5.328	0.100
166.000	-6.596	0.100
166.100	-4.496	0.100
166.200	-23.264	0.100
166.300	-12.608	0.100
166.400	-11.289	0.100
166.500	-7.338	0.100
166.600	-13.092	0.100
166.700	-22.945	0.100
166.800	-16.266	0.100
166.900	-10.412	0.100
167.000	-23.618	0.100
167.100	5.575	0.100
167.200	-21.074	0.100
167.300	-5.091	0.100
167.400	-10.745	0.100
167.500	-0.047	0.100
167.600	3.369	0.100
167.700	-22.252	0.100
167.800	-6.519	0.100
167.900	-4.936	0.100
168.000	-20.191	0.100
168.100	-13.311	0.100
168.200	-9.466	0.100
168.300	-16.651	0.100
168.400	-7.190	0.100
168.500	-7.746	0.100
168.600	-0.013	0.100
168.700	-26.469	0.100
168.800	-12.497	0.100
168.900	0.607	0.100
169.000	-16.763	0.100
169.100	-12.781	0.100
169.200	-12.567	0.100
169.300	-10.754	0.100
169.400	-20.848	0.100
169.500	-2.324	0.100
169.600	-23.633	0.100
169.700	1.796	0.100
169.800	-4.407	0.100
169.900	-3.556	0.100
170.000	-13.498	0.100
170.100	-12.110	0.100
170.200	-8.950	0.100
170.300	-16.278	0.100
170.400	-12.381	0.100
170.500	1.521	0.100
170.600	-9.774	0.100
170.700	-24.297	0.100
170.800	-7.097	0.100
170.900	-18.492	0.100
171.000	-22.627	0.100
171.100	0.413	0.100
171.200	-18.070	0.100
171.300	-10.392	0.100
171.400	-8.661	0.100
171.500	-12.027	0.100
171.600	-10.348	0.100
171.700	0.095	0.100
171.800	-25.529	0.100
171.900	-13.774	0.100
172.000	-9.523	0.100
172.100	-17.450	0.100
172.200	1.733	0.100
172.300	-18.223	0.100
172.400	-14.260	0.100
172.500	-18.523	0.100
172.600	-6.982	0.100
172.700	-3.954	0.100
172.800	-13.393	0.100
172.900	-11.416	0.100
173.000	-7.848	0.100
173.100	-12.074	0.100
173.200	1.187	0.100
173.300	-9.121	0.100
173.400	-14.681	0.100
173.500	4.033	0.100
173.600	-8.638	0.100
173.700	-10.572	0.100
173.800	-4.300	0.100
173.900	-6.749	0.100
174.000	-1.456	0.100
174.100	-2.809	0.100
174.200	-1.775	0.100
174.300	-14.438	0.100
174.400	3.735	0.100
174.500	9.061	0.100
174.600	3.199	0.100
174.700	-15.555	0.100
174.800	0.910	0.100
174.900	-18.736	0.100
175.000	19.754	0.100
175.100	-0.521	0.100
175.200	-6.147	0.100
175.300	-5.828	0.100
175.400	-4.272	0.100
175.500	-0.043	0.100
175.600	-0.198	0.100
175.700	-7.786	0.100
175.800	-6.558	0.100
175.900	-5.666	0.100
176.000	-17.911	0.100
176.100	-6.052	0.100
176.200	0.378	0.100
176.300	5.022	0.100
176.400	-9.731	0.100
176.500	-4.125	0.100
176.600	4.791	0.100
176.700	-4.261	0.100
176.800	4.859	0.100
176.900	-5.526	0.100
177.000	6.092	0.100
177.100	-19.768	0.100
177.200	-0.525	0.100
177.300	-0.255	0.100
177.400	0.795	0.100
177.500	1.140	0.100
177.600	-0.056	0.100
177.700	-6.430	0.100
177.800	7.182	0.100
177.900	1.942	0.100
178.000	-6.052	0.100
178.100	-3.648	0.100
178.200	7.493	0.100
178.300	2.794	0.100
178.400	-12.456	0.100
178.500	4.774	0.100
178.600	13.022	0.100
178.700	0.238	0.100
178.800	-11.234	0.100
178.900	-5.205	0.100
179.000	3.496	0.100
179.100	-9.551	0.100
179.200	-2.090	0.100
179.300	-7.753	0.100
179.400	4.257	0.100
179.500	-4.552	0.100
179.600	13.866	0.100
179.700	9.839	0.100
179.800	-6.792	0.100
179.900	-7.017	0.100
180.000	2.068	0.100
180.100	10.465	0.100
180.200	0.648	0.100
180.300	12.499	0.100
180.400	8.709	0.100
180.500	11.531	0.100
180.600	-2.194	0.100
180.700	-12.186	0.100
180.800	-17.147	0.100
180.900	-20.752	0.100
181.000	-3.394	0.100
181.100	-3.742	0.100
181.200	-11.971	0.100
181.300	-2.391	0.100
181.400	-12.376	0.100
181.500	-6.575	0.100
181.600	-6.821	0.100
181.700	-11.181	0.100
181.800	-18.875	0.100
181.900	-3.740	0.100
182.000	-5.946	0.100
182.100	-18.603	0.100
182.200	-11.570	0.100
182.300	-7.106	0.100
182.400	-25.235	0.100
182.500	1.834	0.100
182.600	-5.628	0.100
182.700	4.392	0.100
182.800	7.326	0.100
182.900	-20.395	0.100
183.000	-15.445	0.100
183.100	-12.662	0.100
183.200	-4.129	0.100
183.300	-10.824	0.100
183.400	-11.430	0.100
183.500	6.332	0.100
183.600	16.258	0.100
183.700	-18.562	0.100
183.800	-2.108	0.100
183.900	2.410	0.100
184.000	-15.159	0.100
184.100	-3.474	0.100
184.200	-3.122	0.100
184.300	-7.077	0.100
184.400	-6.957	0.100
184.500	-5.344	0.100
184.600	-14.944	0.100
184.700	1.378	0.100
184.800	-14.740	0.100
184.900	-5.652	0.100
185.000	-5.104	0.100
185.100	-15.818	0.100
185.200	-2.253	0.100
185.300	-4.271	0.100
185.400	-14.429	0.100
185.500	-0.442	0.100
185.600	9.760	0.100
185.700	-0.935	0.100
185.800	-11.585	0.100
185.900	-5.159	0.100
186.000	-5.071	0.100
186.100	-3.652	0.100
186.200	9.799	0.100
186.300	-10.132	0.100
186.400	-2.988	0.100
186.500	0.467	0.100
186.600	-13.652	0.100
186.700	-7.893	0.100
186.800	-11.324	0.100
186.900	-1.772	0.100
187.000	2.727	0.100
187.100	1.096	0.100
187.200	-1.390	0.100
187.300	-15.748	0.100
187.400	-4.051	0.100
187.500	2.326	0.100
187.600	-1.635	0.100
187.700	-0.305	0.100
187.800	3.376	0.100
187.900	-0.507	0.100
188.000	4.624	0.100
188.100	-12.784	0.100
188.200	-2.597	0.100
188.300	-2.624	0.100
188.400	-8.942	0.100
188.500	-5.839	0.100
188.600	-8.777	0.100
188.700	1.670	0.100
188.800	-7.343	0.100
188.900	-4.300	0.100
189.000	-1.880	0.100
189.100	20.232	0.100
189.200	-2.251	0.100
189.300	-21.848	0.100
189.400	-3.380	0.100
189.500	13.629	0.100
189.600	14.074	0.100
189.700	-13.680	0.100
189.800	-6.506	0.100
189.900	-8.851	0.100
190.000	-15.028	0.100
190.100	2.614	0.100
190.200	3.549	0.100
190.300	14.328	0.100
190.400	-9.396	0.100
190.500	0.044	0.100
190.600	-6.382	0.100
190.700	-4.370	0.100
190.800	-5.023	0.100
190.900	8.305	0.100
191.000	-4.625	0.100
191.100	-0.369	0.100
191.200	-5.949	0.100
191.300	10.542	0.100
191.400	-11.104	0.100
191.500	1.695	0.100
191.600	-8.342	0.100
191.700	3.815	0.100
191.800	-0.702	0.100
191.900	-6.934	0.100
192.000	7.317	0.100
192.100	-7.175	0.100
192.200	-7.218	0.100
192.300	2.819	0.100
192.400	-1.887	0.100
192.500	3.565	0.100
192.600	-3.281	0.100
192.700	9.941	0.100
192.800	-10.458	0.100
192.900	5.332	0.100
193.000	8.541	0.100
193.100	6.491	0.100
193.200	1.216	0.100
193.300	-2.544	0.100
193.400	-7.941	0.100
193.500	-4.431	0.100
193.600	-1.311	0.100
193.700	-4.252	0.100
193.800	-7.419	0.100
193.900	1.086	0.100
194.000	11.042	0.100
194.100	-14.771	0.100
194.200	0.408	0.100
194.300	-3.457	0.100
194.400	16.400	0.100
194.500	2.432	0.100
194.600	1.312	0.100
194.700	-4.438	0.100
194.800	6.559	0.100
194.900	-4.272	0.100
195.000	-6.781	0.100
195.100	12.166	0.100
195.200	-9.807	0.100
195.300	-0.640	0.100
195.400	3.730	0.100
195.500	-10.158	0.100
195.600	-0.304	0.100
195.700	-3.035	0.100
195.800	13.799	0.100
195.900	2.958	0.100
196.000	1.071	0.100
196.100	7.911	0.100
196.200	0.084	0.100
196.300	-13.680	0.100
196.400	10.689	0.100
196.500	-11.633	0.100
196.600	-5.692	0.100
196.700	3.130	0.100
196.800	-2.990	0.100
196.900	5.250	0.100
197.000	-15.217	0.100
197.100	-3.447	0.100
197.200	5.731	0.100
197.300	3.274	0.100
197.400	1.753	0.100
197.500	-5.469	0.100
197.600	2.118	0.100
197.700	1.172	0.100
197.800	1.697	0.100
197.900	-4.563	0.100
198.000	-4.897	0.100
198.100	2.849	0.100
198.200	-7.052	0.100
198.300	-3.754	0.100
198.400	-2.086	0.100
198.500	-8.000	0.100
198.600	7.388	0.100
198.700	-0.248	0.100
198.800	-3.178	0.100
198.900	-10.656	0.100
199.000	-2.573	0.100
199.100	1.909	0.100
199.200	9.885	0.100
199.300	3.592	0.100
199.400	2.630	0.100
199.500	4.000	0.100
199.600	1.488	0.100
199.700	5.150	0.100
199.800	-3.709	0.100
199.900	4.323	0.100
200.000	-9.464	0.100
200.100	8.847	0.100
200.200	-3.591	0.100
200.300	1.057	0.100
200.400	10.754	0.100
200.500	-9.218	0.100
200.600	-1.848	0.100
200.700	9.224	0.100
200.800	5.687	0.100
200.900	-14.229	0.100
201.000	-5.084	0.100
201.100	10.575	0.100
201.200	-5.342	0.100
201.300	2.928	0.100
201.400	0.083	0.100
201.500	-1.911	0.100
201.600	6.714	0.100
201.700	1.656	0.100
201.800	11.322	0.100
201.900	-9.353	0.100
202.000	-10.667	0.100
202.100	-6.169	0.100
202.200	-11.571	0.100
202.300	2.645	0.100
202.400	8.915	0.100
202.500	3.509	0.100
202.600	-6.312	0.100
202.700	-2.265	0.100
202.800	14.252	0.100
202.900	-4.431	0.100
203.000	-7.393	0.100
203.100	-6.000	0.100
203.200	-12.771	0.100
203.300	5.968	0.100
203.400	-11.299	0.100
203.500	1.894	0.100
203.600	3.760	0.100
203.700	-5.583	0.100
203.800	7.768	0.100
203.900	10.133	0.100
204.000	-19.951	0.100
204.100	17.529	0.100
204.200	-5.546	0.100
204.300	1.654	0.100
204.400	-4.779	0.100
204.500	-4.264	0.100
204.600	-14.513	0.100
204.700	18.835	0.100
204.800	-3.871	0.100
204.900	-4.748	0.100
205.000	-7.760	0.100
205.100	2.038	0.100
205.200	-11.667	0.100
205.300	17.965	0.100
205.400	0.463	0.100
205.500	-7.491	0.100
205.600	-13.346	0.100
205.700	-1.007	0.100
205.800	-2.289	0.100
205.900	5.008	0.100
206.000	9.756	0.100
206.100	-5.937	0.100
206.200	-23.081	0.100
206.300	4.435	0.100
206.400	4.135	0.100
206.500	-0.778	0.100
206.600	2.114	0.100
206.700	-6.073	0.100
206.800	5.045	0.100
206.900	-8.299	0.100
207.000	0.120	0.100
207.100	-2.786	0.100
207.200	-6.408	0.100
207.300	7.389	0.100
207.400	-4.953	0.100
207.500	6.261	0.100
207.600	-15.720	0.100
207.700	12.957	0.100
207.800	-12.352	0.100
207.900	5.807	0.100
208.000	4.530	0.100
208.100	10.099	0.100
208.200	-10.692	0.100
208.300	1.168	0.100
208.400	7.087	0.100
208.500	-4.346	0.100
208.600	-12.063	0.100
208.700	4.402	0.100
208.800	3.695	0.100
208.900	-18.916	0.100
209.000	2.169	0.100
209.100	4.899	0.100
209.200	-3.494	0.100
209.300	-1.162	0.100
209.400	6.650	0.100
209.500	-1.368	0.100
209.600	2.444	0.100
209.700	-3.099	0.100
209.800	-6.360	0.100
209.900	0.893	0.100
210.000	-4.378	0.100
210.100	-7.651	0.100
210.200	-4.961	0.100
210.300	11.860	0.100
210.400	4.076	0.100
210.500	0.928	0.100
210.600	-7.281	0.100
210.700	-8.519	0.100
210.800	-9.860	0.100
210.900	-11.048	0.100
211.000	4.013	0.100
211.100	-5.827	0.100
211.200	-2.087	0.100
211.300	2.430	0.100
211.400	-7.512	0.100
211.500	3.831	0.100
211.600	-9.284	0.100
211.700	3.628	0.100
211.800	-2.813	0.100
211.900	-10.928	0.100
212.000	13.130	0.100
212.100	-8.679	0.100
212.200	-3.996	0.100
212.300	-3.316	0.100
212.400	-4.884	0.100
212.500	-8.613	0.100
212.600	2.604	0.100
212.700	-1.610	0.100
212.800	7.419	0.100
212.900	-0.045	0.100
213.000	-2.658	0.100
213.100	-6.014	0.100
213.200	-1.643	0.100
213.300	-13.706	0.100
213.400	-3.098	0.100
213.500	-6.178	0.100
213.600	2.998	0.100
213.700	-12.829	0.100
213.800	-1.518	0.100
213.900	-4.281	0.100
214.000	-12.007	0.100
214.100	-5.337	0.100
214.200	9.524	0.100
214.300	-4.132	0.100
214.400	-9.822	0.100
214.500	-6.939	0.100
214.600	-2.359	0.100
214.700	-2.969	0.100
214.800	-9.496	0.100
214.900	-0.786	0.100
215.000	-11.093	0.100
215.100	-1.534	0.100
215.200	11.262	0.100
215.300	-7.088	0.100
215.400	-8.565	0.100
215.500	-0.360	0.100
215.600	4.171	0.100
215.700	1.151	0.100
215.800	-12.429	0.100
215.900	-15.752	0.100
216.000	0.530	0.100
216.100	4.938	0.100
216.200	-11.671	0.100
216.300	-5.539	0.100
216.400	-0.531	0.100
216.500	5.676	0.100
216.600	-6.992	0.100
216.700	-9.683	0.100
216.800	13.874	0.100
216.900	-6.914	0.100
217.000	-5.276	0.100
217.100	-0.192	0.100
217.200	-8.469	0.100
217.300	-3.373	0.100
217.400	-7.333	0.100
217.500	-5.802	0.100
217.600	11.315	0.100
217.700	5.693	0.100
217.800	9.227	0.100
217.900	2.931	0.100
218.000	-8.632	0.100
218.100	-1.095	0.100
218.200	12.135	0.100
218.300	-1.107	0.100
218.400	-14.130	0.100
218.500	-18.564	0.100
218.600	3.986	0.100
218.700	4.234	0.100
218.800	-11.156	0.100
218.900	-6.727	0.100
219.000	-3.548	0.100
219.100	-10.530	0.100
219.200	-4.632	0.100
219.300	-3.343	0.100
219.400	-1.463	0.100
219.500	-3.200	0.100
219.600	2.834	0.100
219.700	1.140	0.100
219.800	-10.450	0.100
219.900	-6.594	0.100
220.000	-3.949	0.100
220.100	4.467	0.100
220.200	-10.546	0.100
220.300	-3.857	0.100
220.400	-5.811	0.100
220.500	-0.289	0.100
220.600	-6.380	0.100
220.700	-10.707	0.100
220.800	0.397	0.100
220.900	5.533	0.100
221.000	-8.675	0.100
221.100	-13.209	0.100
221.200	-10.488	0.100
221.300	2.581	0.100
221.400	-3.337	0.100
221.500	-8.559	0.100
221.600	2.604	0.100
221.700	-0.528	0.100
221.800	10.745	0.100
221.900	-2.697	0.100
222.000	-20.700	0.100
222.100	10.040	0.100
222.200	-0.445	0.100
222.300	-2.719	0.100
222.400	-4.315	0.100
222.500	0.189	0.100
222.600	-5.960	0.100
222.700	-3.939	0.100
222.800	7.591	0.100
222.900	-5.209	0.100
223.000	-12.235	0.100
223.100	-5.881	0.100
223.200	-9.135	0.100
223.300	-16.709	0.100
223.400	-3.638	0.100
223.500	-6.255	0.100
223.600	-1.867	0.100
223.700	0.927	0.100
223.800	2.568	0.100
223.900	7.880	0.100
224.000	2.163	0.100
224.100	-1.306	0.100
224.200	-8.266	0.100
224.300	4.796	0.100
224.400	-8.736	0.100
224.500	-11.983	0.100
224.600	3.478	0.100
224.700	-0.179	0.100
224.800	-10.121	0.100
224.900	1.765	0.100
225.000	-10.371	0.100
225.100	1.303	0.100
225.200	-3.113	0.100
225.300	-0.137	0.100
225.400	1.318	0.100
225.500	2.602	0.100
225.600	-2.899	0.100
225.700	-4.032	0.100
225.800	6.239	0.100
225.900	-8.006	0.100
226.000	-16.606	0.100
226.100	2.086	0.100
226.200	2.217	0.100
226.300	-3.093	0.100
226.400	-16.004	0.100
226.500	9.026	0.100
226.600	-4.820	0.100
226.700	-7.463	0.100
226.800	3.946	0.100
226.900	-3.200	0.100
227.000	9.848	0.100
227.100	9.424	0.100
227.200	-8.091	0.100
227.300	-2.875	0.100
227.400	0.078	0.100
227.500	-7.292	0.100
227.600	-8.133	0.100
227.700	-0.804	0.100
227.800	6.329	0.100
227.900	0.856	0.100
228.000	-4.468	0.100
228.100	-2.351	0.100
228.200	-21.421	0.100
228.300	-0.027	0.100
228.400	12.566	0.100
228.500	7.756	0.100
228.600	-0.957	0.100
228.700	-1.948	0.100
228.800	-10.194	0.100
228.900	-0.138	0.100
229.000	-6.683	0.100
229.100	1.459	0.100
229.200	-9.838	0.100
229.300	-4.219	0.100
229.400	-6.727	0.100
229.500	1.488	0.100
229.600	1.539	0.100
229.700	2.929	0.100
229.800	-15.519	0.100
229.900	-7.958	0.100
230.000	-5.898	0.100
230.100	-1.849	0.100
230.200	-2.979	0.100
230.300	-0.176	0.100
230.400	-6.312	0.100
230.500	-6.509	0.100
230.600	-5.047	0.100
230.700	-14.089	0.100
230.800	14.357	0.100
230.900	18.982	0.100
231.000	-18.955	0.100
231.100	-5.886	0.100
231.200	-10.038	0.100
231.300	-12.691	0.100
231.400	-0.171	0.100
231.500	-7.244	0.100
231.600	-5.287	0.100
231.700	-15.385	0.100
231.800	-1.864	0.100
231.900	3.885	0.100
232.000	2.840	0.100
232.100	-12.279	0.100
232.200	-9.148	0.100
232.300	-5.360	0.100
232.400	-15.079	0.100
232.500	-6.330	0.100
232.600	-8.041	0.100
232.700	-1.126	0.100
232.800	-8.576	0.100
232.900	-8.052	0.100
233.000	-4.117	0.100
233.100	6.703	0.100
233.200	-13.463	0.100
233.300	-16.776	0.100
233.400	-2.587	0.100
233.500	-8.889	0.100
233.600	-7.419	0.100
233.700	6.157	0.100
233.800	-2.938	0.100
233.900	4.189	0.100
234.000	-3.548	0.100
234.100	-7.552	0.100
234.200	4.045	0.100
234.300	2.671	0.100
234.400	1.609	0.100
234.500	-8.943	0.100
234.600	-12.592	0.100
234.700	-0.744	0.100
234.800	-18.357	0.100
234.900	6.524	0.100
235.000	-5.600	0.100
235.100	-13.931	0.100
235.200	3.866	0.100
235.300	-1.800	0.100
235.400	-5.234	0.100
235.500	5.252	0.100
235.600	-9.172	0.100
235.700	4.220	0.100
235.800	-0.741	0.100
235.900	-5.884	0.100
236.000	12.048	0.100
236.100	-13.280	0.100
236.200	-23.818	0.100
236.300	-1.259	0.100
236.400	-2.856	0.100
236.500	-7.577	0.100
236.600	-9.045	0.100
236.700	5.244	0.100
236.800	2.878	0.100
236.900	-3.786	0.100
237.000	7.036	0.100
237.100	-10.217	0.100
237.200	-9.777	0.100
237.300	-18.256	0.100
237.400	-2.612	0.100
237.500	-14.424	0.100
237.600	-1.281	0.100
237.700	5.135	0.100
237.800	-4.510	0.100
237.900	7.658	0.100
238.000	-16.371	0.100
238.100	-5.503	0.100
238.200	-6.476	0.100
238.300	-2.171	0.100
238.400	-24.296	0.100
238.500	0.813	0.100
238.600	-4.030	0.100
238.700	2.403	0.100
238.800	0.448	0.100
238.900	-7.534	0.100
239.000	-7.176	0.100
239.100	-6.603	0.100
239.200	0.952	0.100
239.300	-4.122	0.100
239.400	-8.543	0.100
239.500	-9.926	0.100
239.600	-12.714	0.100
239.700	-7.078	0.100
239.800	1.504	0.100
239.900	8.233	0.100
240.000	1.926	0.100
240.100	-4.513	0.100
240.200	-10.519	0.100
240.300	2.046	0.100
240.400	-6.314	0.100
240.500	-7.805	0.100
240.600	7.582	0.100
240.700	-20.636	0.100
240.800	2.489	0.100
240.900	-6.435	0.100
241.000	-9.623	0.100
241.100	-0.208	0.100
241.200	7.412	0.100
241.300	-25.063	0.100
241.400	-4.590	0.100
241.500	-0.557	0.100
241.600	-14.745	0.100
241.700	-4.460	0.100
241.800	-3.021	0.100
241.900	2.187	0.100
242.000	-10.455	0.100
242.100	-0.564	0.100
242.200	-4.906	0.100
242.300	-4.029	0.100
242.400	-14.837	0.100
242.500	-5.555	0.100
242.600	-18.763	0.100
242.700	-10.391	0.100
242.800	-5.166	0.100
242.900	4.261	0.100
243.000	-9.059	0.100
243.100	-15.418	0.100
243.200	-4.723	0.100
243.300	-4.813	0.100
243.400	-13.898	0.100
243.500	0.511	0.100
243.600	-10.632	0.100
243.700	-14.116	0.100
243.800	-10.951	0.100
243.900	-10.573	0.100
244.000	-9.068	0.100
244.100	-0.489	0.100
244.200	0.125	0.100
244.300	-15.011	0.100
244.400	-6.053	0.100
244.500	0.211	0.100
244.600	-2.497	0.100
244.700	-7.436	0.100
244.800	-4.942	0.100
244.900	-15.281	0.100
245.000	-1.697	0.100
245.100	5.030	0.100
245.200	-10.351	0.100
245.300	-5.242	0.100
245.400	-33.540	0.100
245.500	1.996	0.100
245.600	-4.207	0.100
245.700	1.995	0.100
245.800	-20.718	0.100
245.900	6.251	0.100
246.000	-5.000	0.100
246.100	3.459	0.100
246.200	-12.562	0.100
246.300	-11.391	0.100
246.400	-9.151	0.100
246.500	-16.278	0.100
246.600	-4.619	0.100
246.700	-6.341	0.100
246.800	-23.171	0.100
246.900	-4.108	0.100
247.000	-5.634	0.100
247.100	-7.748	0.100
247.200	15.511	0.100
247.300	-28.658	0.100
247.400	-5.504	0.100
247.500	-8.176	0.100
247.600	-18.069	0.100
247.700	-15.620	0.100
247.800	-4.607	0.100
247.900	-7.614	0.100
248.000	-8.213	0.100
248.100	-18.882	0.100
248.200	-10.333	0.100
248.300	7.092	0.100
248.400	-12.474	0.100
248.500	-8.435	0.100
248.600	-12.630	0.100
248.700	-8.682	0.100
248.800	-22.649	0.100
248.900	-10.981	0.100
249.000	-0.024	0.100
249.100	-8.115	0.100
249.200	1.010	0.100
249.300	-13.887	0.100
249.400	-4.022	0.100
249.500	-8.223	0.100
249.600	-10.589	0.100
249.700	10.003	0.100
249.800	10.303	0.100
249.900	-6.827	0.100
250.000	-23.633	0.100
250.100	-11.883	0.100
250.200	-2.832	0.100
250.300	-6.455	0.100
250.400	-5.898	0.100
250.500	-4.167	0.100
250.600	-5.139	0.100
250.700	-13.730	0.100
250.800	-6.731	0.100
250.900	-11.004	0.100
251.000	-13.716	0.100
251.100	1.713	0.100
251.200	-20.278	0.100
251.300	-28.490	0.100
251.400	-21.874	0.100
251.500	-16.633	0.100
251.600	-7.644	0.100
251.700	14.534	0.100
251.800	3.544	0.100
251.900	-6.749	0.100
252.000	-9.509	0.100
252.100	2.923	0.100
252.200	-18.015	0.100
252.300	-9.392	0.100
252.400	-16.058	0.100
252.500	-27.567	0.100
252.600	-17.060	0.100
252.700	2.935	0.100
252.800	-9.225	0.100
252.900	1.569	0.100
253.000	-4.086	0.100
253.100	-14.881	0.100
253.200	-8.950	0.100
253.300	-10.079	0.100
253.400	-15.323	0.100
253.500	-19.403	0.100
253.600	-10.722	0.100
253.700	-22.263	0.100
253.800	-21.928	0.100
253.900	-7.920	0.100
254.000	-3.096	0.100
254.100	-8.348	0.100
254.200	-7.444	0.100
254.300	-16.223	0.100
254.400	-11.740	0.100
254.500	-1.017	0.100
254.600	-4.758	0.100
254.700	-15.390	0.100
254.800	-7.811	0.100
254.900	-15.458	0.100
255.000	-18.847	0.100
255.100	-2.293	0.100
255.200	1.930	0.100
255.300	7.914	0.100
255.400	-3.746	0.100
255.500	-30.506	0.100
255.600	-5.704	0.100
255.700	-14.503	0.100
255.800	-14.127	0.100
255.900	-11.290	0.100
256.000	-10.271	0.100
256.100	-2.154	0.100
256.200	-12.010	0.100
256.300	-4.861	0.100
256.400	-3.941	0.100
256.500	-5.350	0.100
256.600	-13.798	0.100
256.700	-12.053	0.100
256.800	-9.649	0.100
256.900	-12.225	0.100
257.000	-8.718	0.100
257.100	-17.153	0.100
257.200	-6.923	0.100
257.300	-3.658	0.100
257.400	-23.376	0.100
257.500	-3.475	0.100
257.600	-13.229	0.100
257.700	-6.614	0.100
257.800	-24.158	0.100
257.900	-1.673	0.100
258.000	-8.792	0.100
258.100	-18.732	0.100
258.200	-11.957	0.100
258.300	-13.364	0.100
258.400	-15.691	0.100
258.500	-27.424	0.100
258.600	-12.425	0.100
258.700	-6.309	0.100
258.800	-14.497	0.100
258.900	-9.842	0.100
259.000	-3.098	0.100
259.100	0.357	0.100
259.200	-6.121	0.100
259.300	3.265	0.100
259.400	-9.993	0.100
259.500	-10.210	0.100
259.600	-21.475	0.100
259.700	-16.914	0.100
259.800	-9.443	0.100
259.900	-13.476	0.100
260.000	1.513	0.100
260.100	-6.108	0.100
260.200	-5.508	0.100
260.300	-0.374	0.100
260.400	-16.358	0.100
260.500	-13.976	0.100
260.600	-14.281	0.100
260.700	-9.002	0.100
260.800	-16.308	0.100
260.900	-10.995	0.100
261.000	20.499	0.100
261.100	-13.674	0.100
261.200	-12.683	0.100
261.300	1.983	0.100
261.400	-10.993	0.100
261.500	-17.071	0.100
261.600	-24.591	0.100
261.700	-1.023	0.100
261.800	2.674	0.100
261.900	3.089	0.100
262.000	-6.448	0.100
262.100	-18.803	0.100
262.200	-10.881	0.100
262.300	-8.836	0.100
262.400	-14.005	0.100
262.500	-7.216	0.100
262.600	-5.151	0.100
262.700	-11.653	0.100
262.800	-7.415	0.100
262.900	-9.824	0.100
263.000	-11.379	0.100
263.100	-17.512	0.100
263.200	2.648	0.100
263.300	-14.398	0.100
263.400	-1.401	0.100
263.500	-8.353	0.100
263.600	-12.393	0.100
263.700	-17.447	0.100
263.800	-11.831	0.100
263.900	8.467	0.100
264.000	-6.253	0.100
264.100	-0.513	0.100
264.200	-21.717	0.100
264.300	-1.955	0.100
264.400	4.893	0.100
264.500	-17.278	0.100
264.600	-20.695	0.100
264.700	4.840	0.100
264.800	-16.775	0.100
264.900	-6.305	0.100
265.000	-20.575	0.100
265.100	1.515	0.100
265.200	-17.165	0.100
265.300	-0.488	0.100
265.400	-14.978	0.100
265.500	-3.576	0.100
265.600	-18.779	0.100
265.700	-6.319	0.100
265.800	-4.234	0.100
265.900	-4.682	0.100
266.000	-12.878	0.100
266.100	-15.357	0.100
266.200	-8.470	0.100
266.300	-10.886	0.100
266.400	-5.941	0.100
266.500	-11.904	0.100
266.600	-9.690	0.100
266.700	-6.476	0.100
266.800	-8.168	0.100
266.900	-12.006	0.100
267.000	-14.754	0.100
267.100	-17.904	0.100
267.200	-9.525	0.100
267.300	-9.865	0.100
267.400	-1.923	0.100
267.500	-10.508	0.100
267.600	-17.793	0.100
267.700	-9.259	0.100
267.800	-16.422	0.100
267.900	-10.052	0.100
268.000	-11.945	0.100
268.100	-17.674	0.100
268.200	-3.352	0.100
268.300	-14.603	0.100
268.400	-16.952	0.100
268.500	-12.628	0.100
268.600	-7.301	0.100
268.700	-1.857	0.100
268.800	1.913	0.100
268.900	-13.306	0.100
269.000	-4.986	0.100
269.100	1.362	0.100
269.200	1.727	0.100
269.300	-13.597	0.100
269.400	-10.709	0.100
269.500	-15.692	0.100
269.600	-4.903	0.100
269.700	-10.639	0.100
269.800	-6.710	0.100
269.900	-0.603	0.100
270.000	-14.897	0.100
270.100	-16.466	0.100
270.200	-4.289	0.100
270.300	-11.256	0.100
270.400	-6.511	0.100
270.500	-12.135	0.100
270.600	-9.469	0.100
270.700	2.241	0.100
270.800	-15.881	0.100
270.900	15.391	0.100
271.000	-4.647	0.100
271.100	-10.778	0.100
271.200	1.990	0.100
271.300	-7.103	0.100
271.400	-11.755	0.100
271.500	-19.574	0.100
271.600	3.114	0.100
271.700	-8.413	0.100
271.800	-12.935	0.100
271.900	-6.114	0.100
272.000	-9.484	0.100
272.100	-6.880	0.100
272.200	-13.638	0.100
272.300	-15.540	0.100
272.400	-4.170	0.100
272.500	-9.774	0.100
272.600	-3.038	0.100
272.700	-6.245	0.100
272.800	-14.136	0.100
272.900	-2.378	0.100
273.000	-12.080	0.100
273.100	-6.377	0.100
273.200	2.348	0.100
273.300	-17.712	0.100
273.400	-13.922	0.100
273.500	-9.746	0.100
273.600	-12.191	0.100
273.700	-8.430	0.100
273.800	-10.793	0.100
273.900	-6.888	0.100
274.000	-6.976	0.100
274.100	-6.527	0.100
274.200	-1.905	0.100
274.300	-6.969	0.100
274.400	1.870	0.100
274.500	-21.409	0.100
274.600	-16.269	0.100
274.700	-11.330	0.100
274.800	-5.681	0.100
274.900	-15.443	0.100
275.000	-3.640	0.100
275.100	-21.453	0.100
275.200	-7.250	0.100
275.300	-7.384	0.100
275.400	-3.214	0.100
275.500	-9.996	0.100
275.600	-17.834	0.100
275.700	-14.252	0.100
275.800	0.717	0.100
275.900	-6.899	0.100
276.000	-2.953	0.100
276.100	-3.492	0.100
276.200	-7.646	0.100
276.300	0.103	0.100
276.400	-12.678	0.100
276.500	-11.347	0.100
276.600	-7.428	0.100
276.700	-14.856	0.100
276.800	1.227	0.100
276.900	-10.387	0.100
277.000	-2.404	0.100
277.100	-19.549	0.100
277.200	-15.784	0.100
277.300	-18.106	0.100
277.400	2.969	0.100
277.500	-1.879	0.100
277.600	-1.042	0.100
277.700	-11.166	0.100
277.800	3.334	0.100
277.900	-4.721	0.100
278.000	-14.763	0.100
278.100	-12.927	0.100
278.200	-29.477	0.100
278.300	-0.473	0.100
278.400	-17.555	0.100
278.500	-4.964	0.100
278.600	-11.963	0.100
278.700	-9.572	0.100
278.800	-17.221	0.100
278.900	-0.523	0.100
279.000	-8.672	0.100
279.100	-10.088	0.100
279.200	-3.400	0.100
279.300	-2.390	0.100
279.400	-10.847	0.100
279.500	-18.159	0.100
279.600	-11.250	0.100
279.700	-8.149	0.100
279.800	-5.682	0.100
279.900	-12.073	0.100
280.000	-5.682	0.100
280.100	0.925	0.100
280.200	-13.660	0.100
280.300	4.283	0.100
280.400	-5.129	0.100
280.500	-6.291	0.100
280.600	-14.755	0.100
280.700	-8.316	0.100
280.800	-9.127	0.100
280.900	-12.899	0.100
281.000	-11.359	0.100
281.100	-4.008	0.100
281.200	-8.385	0.100
281.300	-1.452	0.100
281.400	-9.109	0.100
281.500	-5.703	0.100
281.600	-0.766	0.100
281.700	-9.627	0.100
281.800	-4.507	0.100
281.900	-11.194	0.100
282.000	5.342	0.100
282.100	-22.548	0.100
282.200	1.997	0.100
282.300	-11.903	0.100
282.400	-5.730	0.100
282.500	-9.482	0.100
282.600	-17.829	0.100
282.700	-13.368	0.100
282.800	-13.212	0.100
282.900	-3.488	0.100
283.000	-13.663	0.100
283.100	-13.698	0.100
283.200	-1.823	0.100
283.300	-20.393	0.100
283.400	-4.155	0.100
283.500	-7.288	0.100
283.600	-13.614	0.100
283.700	-6.926	0.100
283.800	-7.651	0.100
283.900	-10.912	0.100
284.000	-15.236	0.100
284.100	-9.454	0.100
284.200	-5.815	0.100
284.300	-16.559	0.100
284.400	-4.497	0.100
284.500	-23.095	0.100
284.600	2.733	0.100
284.700	-9.719	0.100
284.800	-1.703	0.100
284.900	-10.383	0.100
285.000	-11.534	0.100
285.100	-5.685	0.100
285.200	-17.513	0.100
285.300	-7.803	0.100
285.400	0.363	0.100
285.500	-5.693	0.100
285.600	-9.925	0.100
285.700	9.506	0.100
285.800	-17.171	0.100
285.900	14.224	0.100
286.000	-4.675	0.100
286.100	-26.680	0.100
286.200	2.202	0.100
286.300	-0.150	0.100
286.400	-20.057	0.100
286.500	-7.732	0.100
286.600	-22.043	0.100
286.700	-3.338	0.100
286.800	-7.156	0.100
286.900	-0.776	0.100
287.000	-5.537	0.100
287.100	2.101	0.100
287.200	-4.315	0.100
287.300	-14.886	0.100
287.400	-10.970	0.100
287.500	-6.563	0.100
287.600	-15.724	0.100
287.700	4.471	0.100
287.800	-8.455	0.100
287.900	-15.327	0.100
288.000	-6.468	0.100
288.100	-6.570	0.100
288.200	7.026	0.100
288.300	-19.300	0.100
288.400	6.769	0.100
288.500	-11.193	0.100
288.600	-7.848	0.100
288.700	-11.071	0.100
288.800	-8.634	0.100
288.900	8.164	0.100
289.000	-6.581	0.100
289.100	-1.773	0.100
289.200	-9.917	0.100
289.300	0.538	0.100
289.400	-27.645	0.100
289.500	2.715	0.100
289.600	-15.085	0.100
289.700	-8.700	0.100
289.800	-11.432	0.100
289.900	-4.494	0.100
290.000	-6.368	0.100
290.100	-3.601	0.100
290.200	-1.410	0.100
290.300	-9.130	0.100
290.400	-8.423	0.100
290.500	-2.951	0.100
290.600	-13.148	0.100
290.700	-8.800	0.100
290.800	-10.206	0.100
290.900	-21.035	0.100
291.000	-20.100	0.100
291.100	-5.234	0.100
291.200	-16.309	0.100
291.300	-7.271	0.100
291.400	1.389	0.100
291.500	0.892	0.100
291.600	-5.842	0.100
291.700	-15.948	0.100
291.800	-5.947	0.100
291.900	-14.390	0.100
292.000	-17.723	0.100
292.100	-13.420	0.100
292.200	-2.940	0.100
292.300	3.188	0.100
292.400	13.315	0.100
292.500	4.020	0.100
292.600	-4.126	0.100
292.700	-15.458	0.100
292.800	-8.655	0.100
292.900	-13.039	0.100
293.000	4.003	0.100
293.100	-8.129	0.100
293.200	-10.424	0.100
293.300	-0.982	0.100
293.400	-27.774	0.100
293.500	9.882	0.100
293.600	-5.150	0.100
293.700	-17.041	0.100
293.800	-1.537	0.100
293.900	0.827	0.100
294.000	-28.462	0.100
294.100	-3.625	0.100
294.200	-1.144	0.100
294.300	-1.265	0.100
294.400	-14.999	0.100
294.500	-4.383	0.100
294.600	-0.667	0.100
294.700	-1.454	0.100
294.800	-21.657	0.100
294.900	-1.523	0.100
295.000	-0.954	0.100
295.100	1.604	0.100
295.200	-14.372	0.100
295.300	-5.600	0.100
295.400	-0.271	0.100
295.500	-11.914	0.100
295.600	-5.424	0.100
295.700	-5.771	0.100
295.800	-23.493	0.100
295.900	-1.339	0.100
296.000	2.729	0.100
296.100	-13.537	0.100
296.200	-9.565	0.100
296.300	-7.981	0.100
296.400	-22.193	0.100
296.500	3.890	0.100
296.600	-4.225	0.100
296.700	-2.601	0.100
296.800	-9.954	0.100
296.900	-18.839	0.100
297.000	-11.424	0.100
297.100	-13.689	0.100
297.200	2.223	0.100
297.300	-2.379	0.100
297.400	-9.794	0.100
297.500	-8.807	0.100
297.600	-6.062	0.100
297.700	-10.644	0.100
297.800	-8.991	0.100
297.900	-10.940	0.100
298.000	11.515	0.100
298.100	-13.963	0.100
298.200	-5.253	0.100
298.300	-11.261	0.100
298.400	0.222	0.100
298.500	-24.507	0.100
298.600	-17.284	0.100
298.700	-10.288	0.100
298.800	-2.269	0.100
298.900	-12.979	0.100
299.000	-11.107	0.100
299.100	7.014	0.100
299.200	-17.472	0.100
299.300	1.586	0.100
299.400	-7.103	0.100
299.500	-3.949	0.100
299.600	-6.492	0.100
299.700	-15.499	0.100
299.800	-9.705	0.100
299.900	-17.803	0.100
300.000	-4.066	0.100
300.100	-4.131	0.100
300.200	-5.603	0.100
300.300	-6.956	0.100
300.400	-11.440	0.100
300.500	-4.883	0.100
300.600	-14.119	0.100
300.700	-10.073	0.100
300.800	-6.581	0.100
300.900	0.386	0.100
301.000	-4.083	0.100
301.100	-1.077	0.100
301.200	-12.478	0.100
301.300	-11.107	0.100
301.400	-14.326	0.100
301.500	-10.983	0.100
301.600	1.232	0.100
301.700	-0.266	0.100
301.800	-11.052	0.100
301.900	-10.686	0.100
302.000	-4.779	0.100
302.100	-2.885	0.100
302.200	-17.557	0.100
302.300	-14.358	0.100
302.400	-2.095	0.100
302.500	2.786	0.100
302.600	-4.540	0.100
302.700	-7.034	0.100
302.800	-8.776	0.100
302.900	-1.228	0.100
303.000	-12.034	0.100
303.100	-12.842	0.100
303.200	-16.614	0.100
303.300	-10.480	0.100
303.400	-4.403	0.100
303.500	-4.220	0.100
303.600	-3.349	0.100
303.700	2.084	0.100
303.800	-13.840	0.100
303.900	-6.533	0.100
304.000	10.873	0.100
304.100	-12.355	0.100
304.200	8.975	0.100
304.300	-7.711	0.100
304.400	-11.397	0.100
304.500	-2.028	0.100
304.600	-16.208	0.100
304.700	-4.246	0.100
304.800	-16.507	0.100
304.900	-19.225	0.100
305.000	-7.939	0.100
305.100	8.387	0.100
305.200	-8.163	0.100
305.300	-15.702	0.100
305.400	-2.928	0.100
305.500	-12.856	0.100
305.600	-4.208	0.100
305.700	-10.713	0.100
305.800	-17.452	0.100
305.900	13.182	0.100
306.000	-23.189	0.100
306.100	-12.776	0.100
306.200	3.000	0.100
306.300	-6.907	0.100
306.400	6.923	0.100
306.500	-14.741	0.100
306.600	-9.581	0.100
306.700	9.802	0.100
306.800	-6.361	0.100
306.900	-11.642	0.100
307.000	5.620	0.100
307.100	-8.187	0.100
307.200	-5.285	0.100
307.300	-10.849	0.100
307.400	-3.912	0.100
307.500	-11.164	0.100
307.600	-12.404	0.100
307.700	5.474	0.100
307.800	2.629	0.100
307.900	-14.577	0.100
308.000	-0.703	0.100
308.100	-9.163	0.100
308.200	-11.413	0.100
308.300	-11.782	0.100
308.400	-13.312	0.100
308.500	3.871	0.100
308.600	0.752	0.100
308.700	-0.724	0.100
308.800	-24.171	0.100
308.900	-17.513	0.100
309.000	-9.454	0.100
309.100	-8.426	0.100
309.200	-3.089	0.100
309.300	-20.226	0.100
309.400	-8.148	0.100
309.500	-11.001	0.100
309.600	-9.004	0.100
309.700	-3.393	0.100
309.800	1.620	0.100
309.900	5.467	0.100
310.000	-19.115	0.100
310.100	3.207	0.100
310.200	-6.705	0.100
310.300	-4.444	0.100
310.400	-0.412	0.100
310.500	-7.364	0.100
310.600	-14.181	0.100
310.700	-14.847	0.100
310.800	2.065	0.100
310.900	-14.996	0.100
311.000	3.750	0.100
311.100	-6.659	0.100
311.200	-10.187	0.100
311.300	0.905	0.100
311.400	-10.858	0.100
311.500	-2.650	0.100
311.600	-6.692	0.100
311.700	-19.597	0.100
311.800	-1.049	0.100
311.900	-14.147	0.100
312.000	7.402	0.100
312.100	-7.781	0.100
312.200	-9.846	0.100
312.300	-3.363	0.100
312.400	-2.383	0.100
312.500	-8.531	0.100
312.600	-2.770	0.100
312.700	-5.192	0.100
312.800	-8.911	0.100
312.900	1.894	0.100
313.000	-10.738	0.100
313.100	-2.024	0.100
313.200	-18.159	0.100
313.300	-3.509	0.100
313.400	-7.842	0.100
313.500	-0.669	0.100
313.600	-5.229	0.100
313.700	-10.487	0.100
313.800	-4.257	0.100
313.900	-17.696	0.100
314.000	10.610	0.100
314.100	-3.643	0.100
314.200	-7.631	0.100
314.300	-7.520	0.100
314.400	-3.233	0.100
314.500	-3.307	0.100
314.600	-18.398	0.100
314.700	-13.392	0.100
314.800	-5.631	0.100
314.900	-5.948	0.100
315.000	-2.605	0.100
315.100	-7.748	0.100
315.200	4.838	0.100
315.300	-7.607	0.100
315.400	-8.865	0.100
315.500	-14.949	0.100
315.600	-3.444	0.100
315.700	2.818	0.100
315.800	1.792	0.100
315.900	-6.073	0.100
316.000	-11.177	0.100
316.100	-1.801	0.100
316.200	-14.528	0.100
316.300	-3.682	0.100
316.400	-14.574	0.100
316.500	8.903	0.100
316.600	-12.604	0.100
316.700	8.483	0.100
316.800	-6.853	0.100
316.900	-3.020	0.100
317.000	-9.989	0.100
317.100	-15.736	0.100
317.200	2.972	0.100
317.300	-3.610	0.100
317.400	-7.503	0.100
317.500	5.607	0.100
317.600	3.493	0.100
317.700	-11.635	0.100
317.800	-2.851	0.100
317.900	-2.700	0.100
318.000	0.670	0.100
318.100	-20.809	0.100
318.200	-5.796	0.100
318.300	-3.947	0.100
318.400	-5.084	0.100
318.500	2.061	0.100
318.600	-11.782	0.100
318.700	-0.810	0.100
318.800	-14.549	0.100
318.900	-5.785	0.100
319.000	5.344	0.100
319.100	4.459	0.100
319.200	-6.009	0.100
319.300	-14.898	0.100
319.400	-15.928	0.100
319.500	-18.517	0.100
319.600	-8.325	0.100
319.700	-9.682	0.100
319.800	-20.843	0.100
319.900	5.297	0.100
320.000	-1.750	0.100
320.100	3.948	0.100
320.200	-5.182	0.100
320.300	0.870	0.100
320.400	3.724	0.100
320.500	-8.759	0.100
320.600	-0.231	0.100
320.700	0.084	0.100
320.800	-8.578	0.100
320.900	-7.777	0.100
321.000	0.007	0.100
321.100	-13.150	0.100
321.200	-5.830	0.100
321.300	0.953	0.100
321.400	-8.075	0.100
321.500	-1.356	0.100
321.600	-24.359	0.100
321.700	-0.532	0.100
321.800	-13.266	0.100
321.900	-6.614	0.100
322.000	-9.931	0.100
322.100	-1.230	0.100
322.200	-6.235	0.100
322.300	-23.106	0.100
322.400	-6.071	0.100
322.500	-6.732	0.100
322.600	-9.939	0.100
322.700	-4.849	0.100
322.800	-7.278	0.100
322.900	-3.730	0.100
323.000	-10.185	0.100
323.100	-2.749	0.100
323.200	-13.876	0.100
323.300	-10.321	0.100
323.400	-6.755	0.100
323.500	-8.078	0.100
323.600	-6.215	0.100
323.700	-19.014	0.100
323.800	-1.159	0.100
323.900	6.192	0.100
324.000	-3.019	0.100
324.100	-8.699	0.100
324.200	-11.662	0.100
324.300	-2.843	0.100
324.400	1.190	0.100
324.500	-17.320	0.100
324.600	-8.295	0.100
324.700	-7.440	0.100
324.800	-8.411	0.100
324.900	-7.928	0.100
325.000	-5.587	0.100
325.100	-0.091	0.100
325.200	-26.718	0.100
325.300	-3.697	0.100
325.400	-3.505	0.100
325.500	-19.290	0.100
325.600	-5.927	0.100
325.700	-4.454	0.100
325.800	-9.164	0.100
325.900	-21.240	0.100
326.000	9.722	0.100
326.100	-3.096	0.100
326.200	-6.106	0.100
326.300	-13.372	0.100
326.400	-3.567	0.100
326.500	-17.180	0.100
326.600	4.098	0.100
326.700	1.042	0.100
326.800	-17.301	0.100
326.900	-7.317	0.100
327.000	-8.031	0.100
327.100	-9.179	0.100
327.200	16.619	0.100
327.300	-13.751	0.100
327.400	-0.463	0.100
327.500	-6.136	0.100
327.600	-7.089	0.100
327.700	-14.083	0.100
327.800	-4.635	0.100
327.900	-8.191	0.100
328.000	3.325	0.100
328.100	-12.022	0.100
328.200	1.647	0.100
328.300	10.404	0.100
328.400	-5.065	0.100
328.500	-15.331	0.100
328.600	-14.347	0.100
328.700	0.550	0.100
328.800	-10.340	0.100
328.900	-0.901	0.100
329.000	-1.097	0.100
329.100	-5.782	0.100
329.200	-7.479	0.100
329.300	-6.194	0.100
329.400	4.878	0.100
329.500	-9.080	0.100
329.600	-12.274	0.100
329.700	-14.929	0.100
329.800	3.502	0.100
329.900	-12.337	0.100
330.000	-12.487	0.100
330.100	-0.423	0.100
330.200	-10.041	0.100
330.300	-6.554	0.100
330.400	-8.348	0.100
330.500	-15.828	0.100
330.600	-1.379	0.100
330.700	-16.807	0.100
330.800	5.718	0.100
330.900	16.268	0.100
331.000	-5.076	0.100
331.100	-8.699	0.100
331.200	-2.283	0.100
331.300	-0.360	0.100
331.400	-4.765	0.100
331.500	9.754	0.100
331.600	-8.583	0.100
331.700	-2.622	0.100
331.800	-12.116	0.100
331.900	2.488	0.100
332.000	-5.753	0.100
332.100	-6.264	0.100
332.200	-2.960	0.100
332.300	-2.436	0.100
332.400	-5.768	0.100
332.500	-1.268	0.100
332.600	5.785	0.100
332.700	-0.832	0.100
332.800	5.568	0.100
332.900	-9.611	0.100
333.000	-15.493	0.100
333.100	-0.666	0.100
333.200	-0.678	0.100
333.300	-4.958	0.100
333.400	-2.712	0.100
333.500	3.758	0.100
333.600	3.528	0.100
333.700	-0.184	0.100
333.800	4.551	0.100
333.900	-8.397	0.100
334.000	-16.957	0.100
334.100	0.214	0.100
334.200	-3.225	0.100
334.300	-3.292	0.100
334.400	8.452	0.100
334.500	-3.046	0.100
334.600	-4.010	0.100
334.700	-4.685	0.100
334.800	-4.429	0.100
334.900	-7.955	0.100
335.000	-16.719	0.100
335.100	1.056	0.100
335.200	-0.795	0.100
335.300	-3.244	0.100
335.400	1.401	0.100
335.500	-5.020	0.100
335.600	-1.362	0.100
335.700	-4.595	0.100
335.800	-1.298	0.100
335.900	-0.227	0.100
336.000	-3.692	0.100
336.100	-6.737	0.100
336.200	13.249	0.100
336.300	-8.774	0.100
336.400	-10.222	0.100
336.500	-3.131	0.100
336.600	15.075	0.100
336.700	-13.384	0.100
336.800	1.441	0.100
336.900	8.102	0.100
337.000	7.100	0.100
337.100	3.258	0.100
337.200	-1.755	0.100
337.300	-1.364	0.100
337.400	-6.887	0.100
337.500	11.962	0.100
337.600	-5.689	0.100
337.700	-3.217	0.100
337.800	4.279	0.100
337.900	4.204	0.100
338.000	5.638	0.100
338.100	1.396	0.100
338.200	-7.858	0.100
338.300	-2.455	0.100
338.400	3.777	0.100
338.500	6.964	0.100
338.600	-3.886	0.100
338.700	-15.446	0.100
338.800	14.303	0.100
338.900	8.657	0.100
339.000	2.376	0.100
339.100	-4.912	0.100
339.200	7.506	0.100
339.300	0.759	0.100
339.400	3.196	0.100
339.500	10.373	0.100
339.600	3.521	0.100
339.700	-2.166	0.100
339.800	9.556	0.100
339.900	7.403	0.100
340.000	-0.237	0.100
340.100	-2.291	0.100
340.200	1.570	0.100
340.300	-2.468	0.100
340.400	-2.931	0.100
340.500	9.560	0.100
340.600	-4.989	0.100
340.700	5.283	0.100
340.800	10.640	0.100
340.900	2.717	0.100
341.000	-3.238	0.100
341.100	7.832	0.100
341.200	-3.699	0.100
341.300	7.140	0.100
341.400	-0.673	0.100
341.500	21.814	0.100
341.600	-0.319	0.100
341.700	-3.888	0.100
341.800	22.010	0.100
341.900	12.139	0.100
342.000	-8.770	0.100
342.100	15.191	0.100
342.200	1.282	0.100
342.300	-13.835	0.100
342.400	5.608	0.100
342.500	3.145	0.100
342.600	-0.020	0.100
342.700	-4.390	0.100
342.800	5.257	0.100
342.900	3.589	0.100
343.000	2.389	0.100
343.100	0.717	0.100
343.200	-3.888	0.100
343.300	0.474	0.100
343.400	10.574	0.100
343.500	-7.186	0.100
343.600	7.507	0.100
343.700	12.996	0.100
343.800	1.091	0.100
343.900	13.075	0.100
344.000	7.332	0.100
344.100	6.179	0.100
344.200	10.401	0.100
344.300	-0.012	0.100
344.400	3.490	0.100
344.500	17.929	0.100
344.600	2.756	0.100
344.700	2.672	0.100
344.800	-4.517	0.100
344.900	17.181	0.100
345.000	15.324	0.100
345.100	15.048	0.100
345.200	-6.978	0.100
345.300	8.862	0.100
345.400	2.196	0.100
345.500	-2.567	0.100
345.600	-9.686	0.100
345.700	-4.234	0.100
345.800	15.723	0.100
345.900	9.019	0.100
346.000	-7.710	0.100
346.100	15.786	0.100
346.200	8.274	0.100
346.300	-0.334	0.100
346.400	-8.311	0.100
346.500	3.445	0.100
346.600	18.010	0.100
346.700	7.459	0.100
346.800	-0.424	0.100
346.900	14.277	0.100
347.000	-10.617	0.100
347.100	2.658	0.100
347.200	8.193	0.100
347.300	16.580	0.100
347.400	-0.289	0.100
347.500	-0.659	0.100
347.600	8.571	0.100
347.700	14.297	0.100
347.800	7.598	0.100
347.900	-3.135	0.100
348.000	3.034	0.100
348.100	10.891	0.100
348.200	6.558	0.100
348.300	-8.301	0.100
348.400	5.065	0.100
348.500	9.477	0.100
348.600	11.387	0.100
348.700	1.248	0.100
348.800	-17.149	0.100
348.900	10.188	0.100
349.000	9.876	0.100
349.100	20.015	0.100
349.200	-3.935	0.100
349.300	6.457	0.100
349.400	-6.417	0.100
349.500	7.416	0.100
349.600	-9.553	0.100
349.700	7.822	0.100
349.800	6.682	0.100
349.900	-3.933	0.100
350.000	0.802	0.100
350.100	18.075	0.100
350.200	3.452	0.100
350.300	13.534	0.100
350.400	8.830	0.100
350.500	1.698	0.100
350.600	11.931	0.100
350.700	-0.179	0.100
350.800	3.233	0.100
350.900	15.784	0.100
351.000	-4.892	0.100
351.100	6.154	0.100
351.200	-6.856	0.100
351.300	5.201	0.100
351.400	9.597	0.100
351.500	-0.562	0.100
351.600	-3.014	0.100
351.700	16.895	0.100
351.800	9.090	0.100
351.900	3.823	0.100
352.000	6.238	0.100
352.100	-2.273	0.100
352.200	-7.998	0.100
352.300	-1.954	0.100
352.400	2.583	0.100
352.500	18.694	0.100
352.600	4.722	0.100
352.700	-1.126	0.100
352.800	0.193	0.100
352.900	-2.763	0.100
353.000	6.688	0.100
353.100	7.447	0.100
353.200	8.257	0.100
353.300	-10.932	0.100
353.400	-24.498	0.100
353.500	13.411	0.100
353.600	19.096	0.100
353.700	-0.392	0.100
353.800	1.957	0.100
353.900	0.521	0.100
354.000	7.139	0.100
354.100	6.641	0.100
354.200	-2.260	0.100
354.300	-8.872	0.100
354.400	1.704	0.100
354.500	-8.154	0.100
354.600	11.626	0.100
354.700	4.816	0.100
354.800	4.380	0.100
354.900	0.004	0.100
355.000	1.869	0.100
355.100	3.960	0.100
355.200	-9.585	0.100
355.300	-8.876	0.100
355.400	1.981	0.100
355.500	-11.300	0.100
355.600	4.413	0.100
355.700	6.685	0.100
355.800	-4.263	0.100
355.900	7.998	0.100
356.000	23.924	0.100
356.100	-7.340	0.100
356.200	-0.433	0.100
356.300	-0.348	0.100
356.400	8.325	0.100
356.500	7.411	0.100
356.600	-11.129	0.100
356.700	1.559	0.100
356.800	13.096	0.100
356.900	-25.600	0.100
357.000	9.481	0.100
357.100	9.913	0.100
357.200	2.868	0.100
357.300	6.487	0.100
357.400	-5.126	0.100
357.500	18.528	0.100
357.600	-0.863	0.100
357.700	-0.174	0.100
357.800	4.645	0.100
357.900	-4.062	0.100
358.000	9.468	0.100
358.100	7.409	0.100
358.200	-0.948	0.100
358.300	2.005	0.100
358.400	8.694	0.100
358.500	0.543	0.100
358.600	-6.695	0.100
358.700	9.000	0.100
358.800	12.495	0.100
358.900	-1.494	0.100
359.000	3.045	0.100
359.100	2.824	0.100
359.200	-0.269	0.100
359.300	2.800	0.100
359.400	8.585	0.100
359.500	-2.805	0.100
359.600	13.383	0.100
359.700	12.933	0.100
359.800	2.260	0.100
359.900	-16.337	0.100
360.000	7.189	0.100
360.100	2.647	0.100
360.200	-2.915	0.100
360.300	8.061	0.100
360.400	6.717	0.100
360.500	2.820	0.100
360.600	1.329	0.100
360.700	-11.172	0.100
360.800	4.213	0.100
360.900	-13.904	0.100
361.000	-3.457	0.100
361.100	2.784	0.100
361.200	2.779	0.100
361.300	4.415	0.100
361.400	-10.016	0.100
361.500	13.804	0.100
361.600	6.574	0.100
361.700	10.581	0.100
361.800	-8.494	0.100
361.900	6.162	0.100
362.000	-5.432	0.100
362.100	1.933	0.100
362.200	8.607	0.100
362.300	2.315	0.100
362.400	-0.970	0.100
362.500	7.143	0.100
362.600	7.525	0.100
362.700	-7.989	0.100
362.800	1.824	0.100
362.900	7.350	0.100
363.000	-15.221	0.100
363.100	-0.716	0.100
363.200	16.030	0.100
363.300	4.952	0.100
363.400	-2.416	0.100
363.500	-15.739	0.100
363.600	0.406	0.100
363.700	9.737	0.100
363.800	7.332	0.100
363.900	18.925	0.100
364.000	-2.146	0.100
364.100	3.003	0.100
364.200	0.567	0.100
364.300	13.469	0.100
364.400	10.994	0.100
364.500	3.351	0.100
364.600	6.142	0.100
364.700	-4.560	0.100
364.800	-14.261	0.100
364.900	-1.822	0.100
365.000	7.481	0.100
365.100	-1.593	0.100
365.200	7.698	0.100
365.300	2.734	0.100
365.400	5.537	0.100
365.500	4.303	0.100
365.600	4.936	0.100
365.700	-14.765	0.100
365.800	-5.526	0.100
365.900	-8.675	0.100
366.000	2.793	0.100
366.100	-20.169	0.100
366.200	15.780	0.100
366.300	5.320	0.100
366.400	1.348	0.100
366.500	-7.301	0.100
366.600	-7.903	0.100
366.700	3.446	0.100
366.800	14.208	0.100
366.900	-6.593	0.100
367.000	-5.790	0.100
367.100	-8.045	0.100
367.200	-6.806	0.100
367.300	5.096	0.100
367.400	2.439	0.100
367.500	1.618	0.100
367.600	-1.426	0.100
367.700	1.589	0.100
367.800	-11.073	0.100
367.900	3.468	0.100
368.000	7.801	0.100
368.100	-10.619	0.100
368.200	4.379	0.100
368.300	-2.207	0.100
368.400	-3.174	0.100
368.500	6.156	0.100
368.600	-0.100	0.100
368.700	4.303	0.100
368.800	-4.862	0.100
368.900	0.244	0.100
369.000	9.508	0.100
369.100	-21.141	0.100
369.200	-4.007	0.100
369.300	10.183	0.100
369.400	10.149	0.100
369.500	8.962	0.100
369.600	1.223	0.100
369.700	-5.563	0.100
369.800	-7.601	0.100
369.900	6.497	0.100
370.000	1.969	0.100
370.100	-1.466	0.100
370.200	1.021	0.100
370.300	-10.814	0.100
370.400	6.910	0.100
370.500	-3.594	0.100
370.600	4.930	0.100
370.700	-0.718	0.100
370.800	12.425	0.100
370.900	-13.102	0.100
371.000	5.606	0.100
371.100	5.938	0.100
371.200	-0.090	0.100
371.300	-0.780	0.100
371.400	1.250	0.100
371.500	4.524	0.100
371.600	7.761	0.100
371.700	-4.346	0.100
371.800	3.660	0.100
371.900	-3.588	0.100
372.000	-5.127	0.100
372.100	3.908	0.100
372.200	-7.350	0.100
372.300	11.175	0.100
372.400	-14.613	0.100
372.500	3.222	0.100
372.600	15.999	0.100
372.700	9.015	0.100
372.800	2.918	0.100
372.900	0.135	0.100
373.000	-7.722	0.100
373.100	-6.507	0.100
373.200	1.510	0.100
373.300	0.089	0.100
373.400	-3.180	0.100
373.500	1.820	0.100
373.600	-3.029	0.100
373.700	-4.288	0.100
373.800	8.474	0.100
373.900	-3.275	0.100
374.000	8.387	0.100
374.100	-1.806	0.100
374.200	5.643	0.100
374.300	-11.035	0.100
374.400	-4.187	0.100
374.500	9.319	0.100
374.600	4.022	0.100
374.700	5.553	0.100
374.800	-17.986	0.100
374.900	-4.606	0.100
375.000	1.623	0.100
375.100	11.842	0.100
375.200	3.338	0.100
375.300	-2.316	0.100
375.400	6.803	0.100
375.500	-1.780	0.100
375.600	-4.758	0.100
375.700	-20.323	0.100
375.800	0.184	0.100
375.900	8.262	0.100
376.000	-14.653	0.100
376.100	12.149	0.100
376.200	-8.056	0.100
376.300	-2.530	0.100
376.400	-0.355	0.100
376.500	-5.278	0.100
376.600	-13.342	0.100
376.700	17.645	0.100
376.800	-0.120	0.100
376.900	-2.745	0.100
377.000	-3.143	0.100
377.100	2.667	0.100
377.200	2.925	0.100
377.300	3.077	0.100
377.400	-23.202	0.100
377.500	8.231	0.100
377.600	19.027	0.100
377.700	5.331	0.100
377.800	0.019	0.100
377.900	3.202	0.100
378.000	-7.517	0.100
378.100	0.176	0.100
378.200	8.940	0.100
378.300	0.824	0.100
378.400	0.491	0.100
378.500	-17.407	0.100
378.600	5.225	0.100
378.700	-1.895	0.100
378.800	-4.000	0.100
378.900	3.063	0.100
379.000	-0.424	0.100
379.100	1.470	0.100
379.200	1.041	0.100
379.300	18.612	0.100
379.400	15.310	0.100
379.500	1.782	0.100
379.600	1.263	0.100
379.700	11.801	0.100
379.800	-0.062	0.100
379.900	-2.877	0.100
380.000	0.518	0.100
380.100	-7.654	0.100
380.200	-1.300	0.100
380.300	3.446	0.100
380.400	-6.717	0.100
380.500	5.773	0.100
380.600	-17.423	0.100
380.700	6.097	0.100
380.800	15.026	0.100
380.900	-8.062	0.100
381.000	8.083	0.100
381.100	-6.850	0.100
381.200	-7.637	0.100
381.300	-0.307	0.100
381.400	14.282	0.100
381.500	-10.670	0.100
381.600	-17.349	0.100
381.700	10.359	0.100
381.800	-2.986	0.100
381.900	-6.742	0.100
382.000	-1.958	0.100
382.100	0.403	0.100
382.200	7.899	0.100
382.300	10.446	0.100
382.400	-10.684	0.100
382.500	-11.078	0.100
382.600	-0.768	0.100
382.700	11.691	0.100
382.800	-1.936	0.100
382.900	-3.590	0.100
383.000	0.061	0.100
383.100	3.056	0.100
383.200	-12.091	0.100
383.300	9.291	0.100
383.400	-3.673	0.100
383.500	-7.115	0.100
383.600	8.301	0.100
383.700	9.977	0.100
383.800	-3.208	0.100
383.900	9.505	0.100
384.000	10.796	0.100
384.100	-7.563	0.100
384.200	20.303	0.100
384.300	5.607	0.100
384.400	4.407	0.100
384.500	0.840	0.100
384.600	-14.126	0.100
384.700	2.395	0.100
384.800	-6.586	0.100
384.900	-0.673	0.100
385.000	-11.078	0.100
385.100	-1.617	0.100
385.200	10.750	0.100
385.300	-1.639	0.100
385.400	-8.299	0.100
385.500	2.158	0.100
385.600	15.415	0.100
385.700	-7.755	0.100
385.800	7.806	0.100
385.900	-6.113	0.100
386.000	-19.335	0.100
386.100	-7.137	0.100
386.200	18.554	0.100
386.300	-10.451	0.100
386.400	-3.735	0.100
386.500	-5.949	0.100
386.600	4.325	0.100
386.700	8.618	0.100
386.800	10.730	0.100
386.900	-0.703	0.100
387.000	5.381	0.100
387.100	2.327	0.100
387.200	-15.527	0.100
387.300	-10.375	0.100
387.400	8.271	0.100
387.500	7.001	0.100
387.600	-1.654	0.100
387.700	-10.638	0.100
387.800	-11.072	0.100
387.900	0.270	0.100
388.000	12.835	0.100
388.100	1.962	0.100
388.200	-4.298	0.100
388.300	8.347	0.100
388.400	2.067	0.100
388.500	-0.807	0.100
388.600	-11.676	0.100
388.700	-4.649	0.100
388.800	-9.343	0.100
388.900	-20.157	0.100
389.000	1.258	0.100
389.100	-2.137	0.100
389.200	0.718	0.100
389.300	-1.459	0.100
389.400	-1.718	0.100
389.500	11.645	0.100
389.600	-6.129	0.100
389.700	-2.088	0.100
389.800	14.947	0.100
389.900	-6.750	0.100
390.000	7.170	0.100
390.100	-19.789	0.100
390.200	4.678	0.100
390.300	-4.115	0.100
390.400	10.342	0.100
390.500	7.072	0.100
390.600	0.019	0.100
390.700	-4.848	0.100
390.800	-12.808	0.100
390.900	4.817	0.100
391.000	-7.421	0.100
391.100	1.279	0.100
391.200	5.827	0.100
391.300	-9.333	0.100
391.400	-12.359	0.100
391.500	6.886	0.100
391.600	-3.912	0.100
391.700	-8.441	0.100
391.800	-0.842	0.100
391.900	8.797	0.100
392.000	-7.306	0.100
392.100	-2.659	0.100
392.200	18.183	0.100
392.300	3.061	0.100
392.400	-3.678	0.100
392.500	14.720	0.100
392.600	-9.171	0.100
392.700	-9.077	0.100
392.800	-5.865	0.100
392.900	-3.667	0.100
393.000	-7.068	0.100
393.100	5.154	0.100
393.200	-5.627	0.100
393.300	0.138	0.100
393.400	-15.633	0.100
393.500	8.560	0.100
393.600	-12.519	0.100
393.700	10.010	0.100
393.800	-8.933	0.100
393.900	-3.786	0.100
394.000	6.867	0.100
394.100	-1.533	0.100
394.200	-9.221	0.100
394.300	-1.603	0.100
394.400	6.163	0.100
394.500	-7.435	0.100
394.600	-6.089	0.100
394.700	-3.978	0.100
394.800	3.113	0.100
394.900	2.356	0.100
395.000	-13.997	0.100
395.100	4.384	0.100
395.200	-20.280	0.100
395.300	-3.571	0.100
395.400	0.977	0.100
395.500	2.406	0.100
395.600	-1.502	0.100
395.700	-12.335	0.100
395.800	-12.426	0.100
395.900	-1.964	0.100
396.000	-3.967	0.100
396.100	7.204	0.100
396.200	2.165	0.100
396.300	2.181	0.100
396.400	-3.085	0.100
396.500	-6.519	0.100
396.600	-10.578	0.100
396.700	-5.243	0.100
396.800	-0.855	0.100
396.900	-6.545	0.100
397.000	-7.637	0.100
397.100	-22.589	0.100
397.200	-2.245	0.100
397.300	-1.211	0.100
397.400	-10.739	0.100
397.500	3.042	0.100
397.600	-17.679	0.100
397.700	-1.762	0.100
397.800	-16.198	0.100
397.900	2.597	0.100
398.000	0.716	0.100
398.100	-9.816	0.100
398.200	-6.885	0.100
398.300	-5.297	0.100
398.400	-3.998	0.100
398.500	11.342	0.100
398.600	-3.332	0.100
398.700	-9.506	0.100
398.800	-10.098	0.100
398.900	-14.164	0.100
399.000	-11.185	0.100
399.100	-11.383	0.100
399.200	2.554	0.100
399.300	4.759	0.100
399.400	-16.578	0.100
399.500	-10.950	0.100
399.600	-4.269	0.100
399.700	3.140	0.100
399.800	-20.959	0.100
399.900	5.514	0.100
400.000	-6.019	0.100
400.100	-13.514	0.100
400.200	-18.413	0.100
400.300	-1.195	0.100
400.400	6.410	0.100
400.500	5.481	0.100
400.600	4.189	0.100
400.700	-8.786	0.100
400.800	-4.751	0.100
400.900	-18.717	0.100
401.000	2.573	0.100
401.100	-8.924	0.100
401.200	0.285	0.100
401.300	-11.827	0.100
401.400	-1.751	0.100
401.500	4.323	0.100
401.600	-8.185	0.100
401.700	-11.560	0.100
401.800	-6.828	0.100
401.900	-2.043	0.100
402.000	13.589	0.100
402.100	-10.303	0.100
402.200	-8.468	0.100
402.300	-14.953	0.100
402.400	7.456	0.100
402.500	-7.974	0.100
402.600	-25.084	0.100
402.700	1.623	0.100
402.800	1.205	0.100
402.900	0.330	0.100
403.000	-16.397	0.100
403.100	-9.139	0.100
403.200	6.326	0.100
403.300	-17.538	0.100
403.400	7.378	0.100
403.500	8.947	0.100
403.600	-14.429	0.100
403.700	-14.723	0.100
403.800	2.475	0.100
403.900	-2.765	0.100
404.000	-5.182	0.100
404.100	-7.216	0.100
404.200	1.676	0.100
404.300	-4.146	0.100
404.400	0.988	0.100
404.500	-12.812	0.100
404.600	0.822	0.100
404.700	-4.784	0.100
404.800	-9.555	0.100
404.900	0.037	0.100
405.000	-1.467	0.100
405.100	-8.157	0.100
405.200	-3.198	0.100
405.300	-4.495	0.100
405.400	-1.109	0.100
405.500	-0.296	0.100
405.600	-12.179	0.100
405.700	-6.240	0.100
405.800	-17.843	0.100
405.900	-8.985	0.100
406.000	-14.748	0.100
406.100	-6.908	0.100
406.200	-16.601	0.100
406.300	-4.578	0.100
406.400	-6.325	0.100
406.500	-3.759	0.100
406.600	2.622	0.100
406.700	6.620	0.100
406.800	-3.715	0.100
406.900	-14.882	0.100
407.000	-14.752	0.100
407.100	0.667	0.100
407.200	-27.494	0.100
407.300	-3.784	0.100
407.400	-11.706	0.100
407.500	-17.935	0.100
407.600	-13.051	0.100
407.700	-3.580	0.100
407.800	-15.193	0.100
407.900	-7.115	0.100
408.000	0.511	0.100
408.100	-7.364	0.100
408.200	2.108	0.100
408.300	-1.344	0.100
408.400	-17.659	0.100
408.500	-6.133	0.100
408.600	-4.230	0.100
408.700	-2.580	0.100
408.800	2.686	0.100
408.900	-8.262	0.100
409.000	-10.236	0.100
409.100	-3.080	0.100
409.200	-14.506	0.100
409.300	-2.409	0.100
409.400	-4.476	0.100
409.500	-24.375	0.100
409.600	0.398	0.100
409.700	3.149	0.100
409.800	-2.801	0.100
409.900	-14.691	0.100
410.000	-3.720	0.100
410.100	-12.662	0.100
410.200	-16.244	0.100
410.300	15.909	0.100
410.400	-4.591	0.100
410.500	-5.279	0.100
410.600	-9.693	0.100
410.700	-14.897	0.100
410.800	-18.873	0.100
410.900	-1.351	0.100
411.000	-15.478	0.100
411.100	1.893	0.100
411.200	-21.896	0.100
411.300	-5.553	0.100
411.400	-3.251	0.100
411.500	-16.998	0.100
411.600	-4.422	0.100
411.700	-8.944	0.100
411.800	-4.190	0.100
411.900	-5.933	0.100
412.000	-8.118	0.100
412.100	-6.930	0.100
412.200	-2.245	0.100
412.300	-2.512	0.100
412.400	-2.034	0.100
412.500	-1.357	0.100
412.600	-5.344	0.100
412.700	-4.638	0.100
412.800	-4.606	0.100
412.900	-5.366	0.100
413.000	-12.170	0.100
413.100	-2.218	0.100
413.200	-13.325	0.100
413.300	-4.130	0.100
413.400	-11.249	0.100
413.500	-0.405	0.100
413.600	1.579	0.100
413.700	3.567	0.100
413.800	-12.532	0.100
413.900	1.014	0.100
414.000	-13.837	0.100
414.100	-11.220	0.100
414.200	4.152	0.100
414.300	-3.436	0.100
414.400	2.890	0.100
414.500	-8.650	0.100
414.600	-15.288	0.100
414.700	-1.642	0.100
414.800	-1.999	0.100
414.900	-9.299	0.100
415.000	6.158	0.100
415.100	-15.585	0.100
415.200	-2.417	0.100
415.300	-1.633	0.100
415.400	-1.913	0.100
415.500	-0.100	0.100
415.600	-4.576	0.100
415.700	-9.598	0.100
415.800	-0.784	0.100
415.900	-6.381	0.100
416.000	-16.348	0.100
416.100	-17.747	0.100
416.200	0.401	0.100
416.300	6.387	0.100
416.400	0.982	0.100
416.500	-22.746	0.100
416.600	-3.444	0.100
416.700	-4.464	0.100
416.800	-1.184	0.100
416.900	-5.936	0.100
417.000	-1.162	0.100
417.100	-12.846	0.100
417.200	-18.983	0.100
417.300	8.596	0.100
417.400	-11.720	0.100
417.500	-4.457	0.100
417.600	-0.076	0.100
417.700	2.600	0.100
417.800	-23.626	0.100
417.900	-8.349	0.100
418.000	1.593	0.100
418.100	-16.286	0.100
418.200	14.256	0.100
418.300	-6.390	0.100
418.400	-2.227	0.100
418.500	9.908	0.100
418.600	-2.888	0.100
418.700	-5.179	0.100
418.800	-10.775	0.100
418.900	8.792	0.100
419.000	-5.132	0.100
419.100	-1.463	0.100
419.200	3.516	0.100
419.300	-9.303	0.100
419.400	-8.985	0.100
419.500	-5.553	0.100
419.600	-5.475	0.100
419.700	-22.436	0.100
419.800	-5.331	0.100
419.900	-2.936	0.100
420.000	-3.080	0.100
420.100	-17.777	0.100
420.200	2.471	0.100
420.300	-4.755	0.100
420.400	-7.251	0.100
420.500	-5.113	0.100
420.600	-2.050	0.100
420.700	-16.253	0.100
420.800	-18.345	0.100
420.900	-23.401	0.100
421.000	-9.924	0.100
421.100	-8.776	0.100
421.200	-13.322	0.100
421.300	0.805	0.100
421.400	6.066	0.100
421.500	-3.144	0.100
421.600	-6.282	0.100
421.700	-2.327	0.100
421.800	-14.068	0.100
421.900	6.243	0.100
422.000	-18.508	0.100
422.100	18.400	0.100
422.200	3.390	0.100
422.300	-3.725	0.100
422.400	-16.672	0.100
422.500	-13.130	0.100
422.600	-4.223	0.100
422.700	-6.982	0.100
422.800	-2.106	0.100
422.900	-21.294	0.100
423.000	-2.779	0.100
423.100	-5.899	0.100
423.200	-1.553	0.100
423.300	9.609	0.100
423.400	1.291	0.100
423.500	-14.464	0.100
423.600	-5.925	0.100
423.700	-4.570	0.100
423.800	-11.428	0.100
423.900	-7.447	0.100
424.000	-1.491	0.100
424.100	5.124	0.100
424.200	-4.644	0.100
424.300	1.248	0.100
424.400	0.040	0.100
424.500	-7.518	0.100
424.600	-3.178	0.100
424.700	-9.117	0.100
424.800	-8.481	0.100
424.900	3.917	0.100
425.000	-18.205	0.100
425.100	2.283	0.100
425.200	-1.386	0.100
425.300	-13.688	0.100
425.400	-20.603	0.100
425.500	-16.801	0.100
425.600	-3.069	0.100
425.700	7.257	0.100
425.800	-2.298	0.100
425.900	2.056	0.100
426.000	-15.512	0.100
426.100	-8.786	0.100
426.200	-5.814	0.100
426.300	-14.222	0.100
426.400	-1.160	0.100
426.500	-9.369	0.100
426.600	-12.513	0.100
426.700	-1.468	0.100
426.800	-2.598	0.100
426.900	-3.115	0.100
427.000	-20.023	0.100
427.100	-5.421	0.100
427.200	-3.671	0.100
427.300	-10.287	0.100
427.400	-9.479	0.100
427.500	-12.341	0.100
427.600	-1.604	0.100
427.700	-6.580	0.100
427.800	-6.897	0.100
427.900	-13.048	0.100
428.000	-2.217	0.100
428.100	-2.856	0.100
428.200	-11.118	0.100
428.300	-4.788	0.100
428.400	-2.627	0.100
428.500	-8.252	0.100
428.600	-4.602	0.100
428.700	-4.120	0.100
428.800	2.745	0.100
428.900	-7.266	0.100
429.000	2.078	0.100
429.100	-9.927	0.100
429.200	-5.529	0.100
429.300	4.177	0.100
429.400	-18.820	0.100
429.500	-11.636	0.100
429.600	-18.555	0.100
429.700	13.963	0.100
429.800	-14.513	0.100
429.900	-17.938	0.100
430.000	4.371	0.100
430.100	1.373	0.100
430.200	9.977	0.100
430.300	-2.562	0.100
430.400	-14.941	0.100
430.500	-0.241	0.100
430.600	-6.382	0.100
430.700	6.653	0.100
430.800	-6.719	0.100
430.900	-8.279	0.100
431.000	-1.125	0.100
431.100	3.559	0.100
431.200	-17.502	0.100
431.300	5.262	0.100
431.400	-20.463	0.100
431.500	-2.510	0.100
431.600	-14.829	0.100
431.700	-12.424	0.100
431.800	-1.744	0.100
431.900	-3.866	0.100
432.000	7.000	0.100
432.100	-2.582	0.100
432.200	-0.476	0.100
432.300	-9.317	0.100
432.400	2.149	0.100
432.500	-5.984	0.100
432.600	-24.539	0.100
432.700	3.996	0.100
432.800	0.059	0.100
432.900	-9.188	0.100
433.000	5.125	0.100
433.100	-12.045	0.100
433.200	-15.627	0.100
433.300	-9.379	0.100
433.400	-19.794	0.100
433.500	12.146	0.100
433.600	-4.316	0.100
433.700	0.343	0.100
433.800	-12.649	0.100
433.900	1.567	0.100
434.000	2.165	0.100
434.100	-12.771	0.100
434.200	-15.792	0.100
434.300	1.562	0.100
434.400	-10.690	0.100
434.500	-8.066	0.100
434.600	-12.228	0.100
434.700	-11.829	0.100
434.800	-6.159	0.100
434.900	21.329	0.100
435.000	-4.080	0.100
435.100	2.070	0.100
435.200	-1.367	0.100
435.300	-11.121	0.100
435.400	-3.830	0.100
435.500	-4.714	0.100
435.600	-0.428	0.100
435.700	-3.001	0.100
435.800	-0.396	0.100
435.900	0.227	0.100
436.000	-3.228	0.100
436.100	-18.503	0.100
436.200	-13.306	0.100
436.300	-7.282	0.100
436.400	-10.933	0.100
436.500	10.023	0.100
436.600	2.260	0.100
436.700	-30.489	0.100
436.800	8.627	0.100
436.900	-13.183	0.100
437.000	-30.567	0.100
437.100	-7.970	0.100
437.200	6.598	0.100
437.300	-16.347	0.100
437.400	-2.997	0.100
437.500	-0.079	0.100
437.600	-10.459	0.100
437.700	18.073	0.100
437.800	-9.483	0.100
437.900	-13.992	0.100
438.000	-1.218	0.100
438.100	-1.792	0.100
438.200	-4.596	0.100
438.300	-5.255	0.100
438.400	4.899	0.100
438.500	0.430	0.100
438.600	-8.637	0.100
438.700	-23.903	0.100
438.800	12.677	0.100
438.900	6.538	0.100
439.000	-1.401	0.100
439.100	-7.092	0.100
439.200	-7.876	0.100
439.300	-12.332	0.100
439.400	-1.641	0.100
439.500	-3.048	0.100
439.600	1.933	0.100
439.700	-4.881	0.100
439.800	0.039	0.100
439.900	0.471	0.100
440.000	4.633	0.100
440.100	-11.770	0.100
440.200	-12.461	0.100
440.300	0.501	0.100
440.400	6.113	0.100
440.500	1.575	0.100
440.600	2.275	0.100
440.700	-5.111	0.100
440.800	0.963	0.100
440.900	0.662	0.100
441.000	13.666	0.100
441.100	-7.636	0.100
441.200	-4.689	0.100
441.300	8.824	0.100
441.400	1.921	0.100
441.500	-4.316	0.100
441.600	-10.023	0.100
441.700	-12.519	0.100
441.800	-13.950	0.100
441.900	-16.016	0.100
442.000	7.645	0.100
442.100	4.593	0.100
442.200	-8.514	0.100
442.300	-4.215	0.100
442.400	-2.836	0.100
442.500	-7.272	0.100
442.600	-4.120	0.100
442.700	-1.594	0.100
442.800	-4.273	0.100
442.900	-4.575	0.100
443.000	-10.688	0.100
443.100	1.261	0.100
443.200	-13.102	0.100
443.300	-2.165	0.100
443.400	-12.029	0.100
443.500	-1.503	0.100
443.600	-9.309	0.100
443.700	2.353	0.100
443.800	-2.194	0.100
443.900	-0.068	0.100
444.000	-1.641	0.100
444.100	-4.195	0.100
444.200	7.132	0.100
444.300	-3.704	0.100
444.400	-7.974	0.100
444.500	-1.483	0.100
444.600	5.662	0.100
444.700	-3.207	0.100
444.800	-26.643	0.100
444.900	2.969	0.100
445.000	3.002	0.100
445.100	-8.367	0.100
445.200	-21.472	0.100
445.300	-3.140	0.100
445.400	-5.869	0.100
445.500	-4.845	0.100
445.600	-2.402	0.100
445.700	0.297	0.100
445.800	-0.692	0.100
445.900	4.612	0.100
446.000	3.442	0.100
446.100	3.045	0.100
446.200	-11.610	0.100
446.300	1.666	0.100
446.400	0.999	0.100
446.500	10.451	0.100
446.600	-2.069	0.100
446.700	-7.609	0.100
446.800	2.132	0.100
446.900	-14.973	0.100
447.000	-7.972	0.100
447.100	-4.373	0.100
447.200	-5.888	0.100
447.300	3.153	0.100
447.400	0.895	0.100
447.500	2.101	0.100
447.600	-9.405	0.100
447.700	3.461	0.100
447.800	12.338	0.100
447.900	0.198	0.100
448.000	-8.414	0.100
448.100	-13.598	0.100
448.200	-10.086	0.100
448.300	3.754	0.100
448.400	-11.753	0.100
448.500	6.288	0.100
448.600	10.349	0.100
448.700	-7.511	0.100
448.800	-23.933	0.100
448.900	-1.889	0.100
449.000	-0.763	0.100
449.100	-9.926	0.100
449.200	-5.370	0.100
449.300	-0.654	0.100
449.400	3.827	0.100
449.500	-10.815	0.100
449.600	-5.753	0.100
449.700	-14.052	0.100
449.800	8.102	0.100
449.900	0.647	0.100
450.000	-20.828	0.100
450.100	-2.206	0.100
450.200	1.391	0.100
450.300	-0.807	0.100
450.400	-8.546	0.100
450.500	3.234	0.100
450.600	-27.575	0.100
450.700	-0.394	0.100
450.800	-2.759	0.100
450.900	-6.048	0.100
451.000	-2.534	0.100
451.100	-1.520	0.100
451.200	3.667	0.100
451.300	-9.804	0.100
451.400	-13.229	0.100
451.500	5.757	0.100
451.600	-9.964	0.100
451.700	-1.693	0.100
451.800	4.646	0.100
451.900	-20.417	0.100
452.000	6.730	0.100
452.100	-5.876	0.100
452.200	-12.232	0.100
452.300	-3.206	0.100
452.400	-5.055	0.100
452.500	10.315	0.100
452.600	-9.748	0.100
452.700	6.255	0.100
452.800	1.124	0.100
452.900	-20.671	0.100
453.000	-1.079	0.100
453.100	-13.961	0.100
453.200	-2.879	0.100
453.300	2.813	0.100
453.400	2.586	0.100
453.500	-25.524	0.100
453.600	6.042	0.100
453.700	-12.403	0.100
453.800	-1.206	0.100
453.900	-7.314	0.100
454.000	-2.299	0.100
454.100	-0.957	0.100
454.200	-4.381	0.100
454.300	-18.634	0.100
454.400	-11.299	0.100
454.500	10.419	0.100
454.600	-7.154	0.100
454.700	-5.295	0.100
454.800	-4.822	0.100
454.900	-6.336	0.100
455.000	2.037	0.100
455.100	-0.132	0.100
455.200	8.398	0.100
455.300	-2.532	0.100
455.400	-11.791	0.100
455.500	-20.627	0.100
455.600	-8.011	0.100
455.700	6.272	0.100
455.800	-11.473	0.100
455.900	0.682	0.100
456.000	-13.111	0.100
456.100	-8.679	0.100
456.200	7.104	0.100
456.300	-8.575	0.100
456.400	2.060	0.100
456.500	2.404	0.100
456.600	-5.770	0.100
456.700	-8.609	0.100
456.800	-22.001	0.100
456.900	4.225	0.100
457.000	-3.003	0.100
457.100	6.292	0.100
457.200	-9.126	0.100
457.300	1.813	0.100
457.400	-2.147	0.100
457.500	-5.214	0.100
457.600	-10.603	0.100
457.700	-0.396	0.100
457.800	-1.166	0.100
457.900	-1.173	0.100
458.000	2.311	0.100
458.100	2.814	0.100
458.200	-8.726	0.100
458.300	-1.970	0.100
458.400	-3.216	0.100
458.500	0.992	0.100
458.600	5.198	0.100
458.700	-1.380	0.100
458.800	9.145	0.100
458.900	-2.891	0.100
459.000	0.062	0.100
459.100	-9.551	0.100
459.200	3.416	0.100
459.300	-12.199	0.100
459.400	-2.391	0.100
459.500	2.404	0.100
459.600	2.764	0.100
459.700	-6.902	0.100
459.800	-12.441	0.100
459.900	-7.076	0.100
460.000	-8.920	0.100
460.100	-9.804	0.100
460.200	10.431	0.100
460.300	2.803	0.100
460.400	-8.610	0.100
460.500	0.567	0.100
460.600	2.008	0.100
460.700	-17.785	0.100
460.800	0.188	0.100
460.900	5.762	0.100
461.000	-6.295	0.100
461.100	-1.670	0.100
461.200	0.293	0.100
461.300	2.619	0.100
461.400	-6.794	0.100
461.500	-10.101	0.100
461.600	-8.681	0.100
461.700	3.006	0.100
461.800	6.140	0.100
461.900	-7.732	0.100
462.000	-9.693	0.100
462.100	13.202	0.100
462.200	-3.757	0.100
462.300	4.972	0.100
462.400	-0.123	0.100
462.500	9.990	0.100
462.600	-6.720	0.100
462.700	-0.134	0.100
462.800	-9.963	0.100
462.900	8.222	0.100
463.000	-4.037	0.100
463.100	9.546	0.100
463.200	-1.599	0.100
463.300	-8.593	0.100
463.400	3.433	0.100
463.500	-7.805	0.100
463.600	-7.122	0.100
463.700	-12.974	0.100
463.800	-9.505	0.100
463.900	13.728	0.100
464.000	0.043	0.100
464.100	-3.794	0.100
464.200	-8.377	0.100
464.300	0.831	0.100
464.400	-7.803	0.100
464.500	-11.113	0.100
464.600	-4.075	0.100
464.700	-0.209	0.100
464.800	-5.013	0.100
464.900	1.422	0.100
465.000	-5.461	0.100
465.100	7.312	0.100
465.200	-9.614	0.100
465.300	-14.259	0.100
465.400	-5.921	0.100
465.500	6.974	0.100
465.600	-9.364	0.100
465.700	6.404	0.100
465.800	12.197	0.100
465.900	0.429	0.100
466.000	-6.141	0.100
466.100	-5.685	0.100
466.200	10.678	0.100
466.300	-7.810	0.100
466.400	-6.586	0.100
466.500	2.743	0.100
466.600	4.845	0.100
466.700	-1.221	0.100
466.800	1.212	0.100
466.900	-7.521	0.100
467.000	-18.403	0.100
467.100	-8.246	0.100
467.200	-11.031	0.100
467.300	-10.881	0.100
467.400	-11.407	0.100
467.500	14.483	0.100
467.600	17.659	0.100
467.700	-2.342	0.100
467.800	5.208	0.100
467.900	-13.361	0.100
468.000	-4.203	0.100
468.100	-7.777	0.100
468.200	3.431	0.100
468.300	-0.210	0.100
468.400	-20.088	0.100
468.500	2.530	0.100
468.600	-10.812	0.100
468.700	2.415	0.100
468.800	4.554	0.100
468.900	0.204	0.100
469.000	-9.443	0.100
469.100	1.274	0.100
469.200	7.752	0.100
469.300	-15.494	0.100
469.400	-3.164	0.100
469.500	5.095	0.100
469.600	-9.090	0.100
469.700	-3.596	0.100
469.800	2.529	0.100
469.900	5.028	0.100
470.000	0.309	0.100
470.100	5.307	0.100
470.200	-4.246	0.100
470.300	1.985	0.100
470.400	-11.175	0.100
470.500	-19.257	0.100
470.600	1.520	0.100
470.700	-1.250	0.100
470.800	-0.505	0.100
470.900	-4.471	0.100
471.000	-5.508	0.100
471.100	3.888	0.100
471.200	-23.963	0.100
471.300	5.773	0.100
471.400	7.519	0.100
471.500	-2.974	0.100
471.600	-6.610	0.100
471.700	5.999	0.100
471.800	-10.667	0.100
471.900	-2.923	0.100
472.000	3.226	0.100
472.100	-20.697	0.100
472.200	7.201	0.100
472.300	6.570	0.100
472.400	-15.127	0.100
472.500	13.590	0.100
472.600	2.437	0.100
472.700	-7.237	0.100
472.800	-7.371	0.100
472.900	-10.478	0.100
473.000	-3.298	0.100
473.100	19.846	0.100
473.200	-6.759	0.100
473.300	-15.079	0.100
473.400	8.526	0.100
473.500	0.463	0.100
473.600	0.316	0.100
473.700	3.448	0.100
473.800	-8.760	0.100
473.900	1.247	0.100
474.000	-10.301	0.100
474.100	-3.711	0.100
474.200	1.127	0.100
474.300	4.228	0.100
474.400	0.476	0.100
474.500	-2.596	0.100
474.600	-8.453	0.100
474.700	1.713	0.100
474.800	-18.880	0.100
474.900	-2.386	0.100
475.000	0.313	0.100
475.100	-13.722	0.100
475.200	-13.341	0.100
475.300	8.224	0.100
475.400	7.628	0.100
475.500	-10.579	0.100
475.600	7.071	0.100
475.700	4.387	0.100
475.800	-8.220	0.100
475.900	-18.353	0.100
476.000	1.806	0.100
476.100	2.650	0.100
476.200	-1.685	0.100
476.300	-3.235	0.100
476.400	2.797	0.100
476.500	3.746	0.100
476.600	2.593	0.100
476.700	-10.596	0.100
476.800	4.817	0.100
476.900	-3.715	0.100
477.000	-15.250	0.100
477.100	3.461	0.100
477.200	0.214	0.100
477.300	-1.580	0.100
477.400	-8.187	0.100
477.500	6.166	0.100
477.600	-3.782	0.100
477.700	2.368	0.100
477.800	-21.110	0.100
477.900	-16.220	0.100
478.000	-2.708	0.100
478.100	-9.206	0.100
478.200	-9.353	0.100
478.300	2.261	0.100
478.400	-10.018	0.100
478.500	-6.430	0.100
478.600	16.811	0.100
478.700	-0.679	0.100
478.800	2.240	0.100
478.900	-2.483	0.100
479.000	8.553	0.100
479.100	-12.121	0.100
479.200	4.082	0.100
479.300	-4.092	0.100
479.400	-4.389	0.100
479.500	3.780	0.100
479.600	-14.666	0.100
479.700	-5.860	0.100
479.800	-6.008	0.100
479.900	18.052	0.100
480.000	-12.197	0.100
480.100	2.313	0.100
480.200	12.872	0.100
480.300	-5.326	0.100
480.400	-6.859	0.100
480.500	-4.203	0.100
480.600	-5.782	0.100
480.700	-2.379	0.100
480.800	-4.726	0.100
480.900	-3.560	0.100
481.000	3.082	0.100
481.100	-0.089	0.100
481.200	-2.718	0.100
481.300	-15.455	0.100
481.400	5.152	0.100
481.500	2.073	0.100
481.600	-11.331	0.100
481.700	-12.683	0.100
481.800	-8.685	0.100
481.900	-6.930	0.100
482.000	-11.667	0.100
482.100	17.312	0.100
482.200	3.896	0.100
482.300	6.383	0.100
482.400	8.700	0.100
482.500	0.212	0.100
482.600	2.093	0.100
482.700	10.709	0.100
482.800	-7.918	0.100
482.900	-3.812	0.100
483.000	14.994	0.100
483.100	-3.540	0.100
483.200	-4.714	0.100
483.300	-11.959	0.100
483.400	7.047	0.100
483.500	5.468	0.100
483.600	5.436	0.100
483.700	-2.619	0.100
483.800	-7.604	0.100
483.900	14.238	0.100
484.000	4.046	0.100
484.100	-4.411	0.100
484.200	-3.774	0.100
484.300	5.812	0.100
484.400	5.585	0.100
484.500	3.937	0.100
484.600	13.998	0.100
484.700	5.009	0.100
484.800	9.768	0.100
484.900	8.932	0.100
485.000	2.234	0.100
485.100	3.931	0.100
485.200	-2.341	0.100
485.300	4.330	0.100
485.400	-0.084	0.100
485.500	7.681	0.100
485.600	-2.193	0.100
485.700	4.849	0.100
485.800	9.398	0.100
485.900	-4.763	0.100
486.000	-7.222	0.100
486.100	12.840	0.100
486.200	17.489	0.100
486.300	-3.173	0.100
486.400	5.971	0.100
486.500	-2.322	0.100
486.600	-2.273	0.100
486.700	8.224	0.100
486.800	3.909	0.100
486.900	2.149	0.100
487.000	-2.815	0.100
487.100	17.080	0.100
487.200	5.554	0.100
487.300	-2.586	0.100
487.400	4.244	0.100
487.500	13.350	0.100
487.600	-3.842	0.100
487.700	-2.634	0.100
487.800	-10.576	0.100
487.900	-15.712	0.100
488.000	19.618	0.100
488.100	11.099	0.100
488.200	3.282	0.100
488.300	4.899	0.100
488.400	13.001	0.100
488.500	9.303	0.100
488.600	-2.653	0.100
488.700	-7.771	0.100
488.800	15.904	0.100
488.900	5.813	0.100
489.000	-5.488	0.100
489.100	14.462	0.100
489.200	10.661	0.100
489.300	9.646	0.100
489.400	2.487	0.100
489.500	6.936	0.100
489.600	3.311	0.100
489.700	-0.453	0.100
489.800	5.958	0.100
489.900	4.370	0.100
490.000	1.358	0.100
490.100	7.480	0.100
490.200	25.959	0.100
490.300	4.355	0.100
490.400	0.627	0.100
490.500	20.236	0.100
490.600	5.118	0.100
490.700	7.077	0.100
490.800	15.103	0.100
490.900	3.270	0.100
491.000	-2.608	0.100
491.100	17.929	0.100
491.200	12.046	0.100
491.300	10.947	0.100
491.400	9.932	0.100
491.500	-2.606	0.100
491.600	7.654	0.100
491.700	4.034	0.100
491.800	21.621	0.100
491.900	11.733	0.100
492.000	-2.040	0.100
492.100	2.892	0.099
492.200	7.253	0.099
492.300	-7.762	0.100
492.400	-3.313	0.099
492.500	12.527	0.099
492.600	17.031	0.099
492.700	-3.023	0.099
492.800	17.096	0.099
492.900	8.881	0.099
493.000	25.085	0.099
493.100	8.615	0.099
493.200	5.943	0.099
493.300	0.569	0.099
493.400	6.386	0.099
493.500	-13.442	0.099
493.600	26.818	0.099
493.700	2.410	0.099
493.800	-4.869	0.099
493.900	18.930	0.099
494.000	3.243	0.099
494.100	7.753	0.099
494.200	18.188	0.099
494.300	9.964	0.099
494.400	12.663	0.099
494.500	5.424	0.099
494.600	11.496	0.099
494.700	4.798	0.099
494.800	3.235	0.099
494.900	6.740	0.099
495.000	9.201	0.099
495.100	7.066	0.099
495.200	13.277	0.099
495.300	-2.062	0.099
495.400	4.914	0.099
495.500	14.551	0.099
495.600	28.355	0.099
495.700	12.924	0.099
495.800	8.823	0.099
495.900	0.135	0.099
496.000	14.368	0.099
496.100	-4.081	0.099
496.200	0.306	0.099
496.300	4.601	0.099
496.400	5.089	0.099
496.500	4.406	0.099
496.600	14.810	0.099
496.700	16.953	0.099
496.800	-0.664	0.099
496.900	8.711	0.099
497.000	6.195	0.099
497.100	8.387	0.099
497.200	8.632	0.099
497.300	6.277	0.099
497.400	6.086	0.099
497.500	9.840	0.099
497.600	5.188	0.099
497.700	1.270	0.099
497.800	-0.928	0.099
497.900	18.494	0.099
498.000	6.177	0.099
498.100	12.898	0.099
498.200	10.599	0.099
498.300	5.429	0.099
498.400	-3.736	0.099
498.500	10.779	0.099
498.600	5.371	0.099
498.700	10.591	0.099
498.800	4.476	0.099
498.900	-5.472	0.099
499.000	6.224	0.099
499.100	-9.974	0.099
499.200	24.871	0.099
499.300	9.481	0.099
499.400	8.995	0.099
499.500	11.422	0.099
499.600	1.028	0.099
499.700	-1.775	0.099
499.800	10.250	0.099
499.900	11.127	0.099
500.000	7.167	0.099
500.100	8.773	0.099
500.200	8.670	0.099
500.300	9.954	0.099
500.400	18.743	0.099
500.500	7.464	0.099
500.600	-2.080	0.099
500.700	-5.457	0.099
500.800	4.904	0.099
500.900	17.996	0.099
501.000	5.672	0.099
501.100	3.709	0.099
501.200	23.406	0.099
501.300	8.553	0.099
501.400	-5.392	0.099
501.500	7.083	0.099
501.600	-2.264	0.099
501.700	-11.235	0.099
501.800	-7.469	0.099
501.900	10.749	0.099
502.000	1.785	0.099
502.100	5.451	0.099
502.200	-0.257	0.099
502.300	18.092	0.099
502.400	-1.229	0.099
502.500	11.898	0.099
502.600	-7.675	0.099
502.700	-4.304	0.099
502.800	20.833	0.099
502.900	17.286	0.099
503.000	5.595	0.099
503.100	7.415	0.099
503.200	0.742	0.099
503.300	-2.299	0.099
503.400	7.733	0.099
503.500	5.727	0.099
503.600	-0.162	0.099
503.700	10.118	0.099
503.800	6.347	0.099
503.900	-5.479	0.099
504.000	13.146	0.099
504.100	-9.854	0.099
504.200	6.618	0.099
504.300	9.950	0.099
504.400	14.071	0.099
504.500	6.409	0.099
504.600	4.404	0.099
504.700	3.211	0.099
504.800	1.931	0.099
504.900	6.495	0.099
505.000	4.599	0.099
505.100	4.551	0.099
505.200	11.106	0.099
505.300	3.828	0.099
505.400	6.104	0.099
505.500	12.088	0.099
505.600	3.962	0.099
505.700	5.472	0.099
505.800	5.326	0.099
505.900	3.780	0.099
506.000	23.259	0.099
506.100	3.839	0.099
506.200	0.591	0.099
506.300	6.202	0.099
506.400	5.174	0.099
506.500	9.243	0.099
506.600	-12.368	0.099
506.700	7.409	0.099
506.800	-8.863	0.099
506.900	10.945	0.099
507.000	10.282	0.099
507.100	6.471	0.099
507.200	13.511	0.099
507.300	0.579	0.099
507.400	-7.078	0.099
507.500	14.160	0.099
507.600	2.774	0.099
507.700	0.658	0.099
507.800	16.956	0.099
507.900	9.672	0.099
508.000	-0.710	0.099
508.100	-1.838	0.099
508.200	4.802	0.099
508.300	10.138	0.099
508.400	7.968	0.099
508.500	8.129	0.099
508.600	-5.053	0.099
508.700	5.128	0.099
508.800	8.948	0.099
508.900	-1.988	0.099
509.000	-10.249	0.099
509.100	2.992	0.099
509.200	16.441	0.100
509.300	5.990	0.100
509.400	-9.533	0.100
509.500	13.860	0.100
509.600	0.703	0.100
509.700	7.300	0.100
509.800	-1.737	0.100
509.900	-1.847	0.100
510.000	8.817	0.100
510.100	16.245	0.100
510.200	6.294	0.100
510.300	11.265	0.100
510.400	9.434	0.100
510.500	3.044	0.100
510.600	17.187	0.100
510.700	3.215	0.100
510.800	-0.142	0.100
510.900	-0.709	0.100
511.000	2.660	0.100
511.100	-0.687	0.100
511.200	7.795	0.100
511.300	7.008	0.100
511.400	12.230	0.100
511.500	-1.310	0.100
511.600	16.859	0.100
511.700	11.519	0.100
511.800	-2.054	0.100
511.900	8.962	0.100
512.000	3.248	0.100
512.100	-2.575	0.100
512.200	7.710	0.100
512.300	-0.674	0.100
512.400	-1.349	0.100
512.500	10.030	0.100
512.600	15.005	0.100
512.700	-3.107	0.100
512.800	-6.043	0.100
512.900	16.465	0.100
513.000	11.235	0.100
513.100	5.997	0.100
513.200	2.394	0.100
513.300	6.695	0.100
513.400	17.096	0.100
513.500	-0.787	0.100
513.600	18.256	0.100
513.700	6.467	0.100
513.800	-0.958	0.100
513.900	-2.190	0.100
514.000	15.384	0.100
514.100	7.179	0.100
514.200	-4.976	0.100
514.300	10.816	0.100
514.400	-3.661	0.100
514.500	18.328	0.100
514.600	-0.159	0.100
514.700	5.522	0.100
514.800	3.749	0.100
514.900	5.668	0.100
515.000	-1.905	0.100
515.100	1.634	0.100
515.200	4.562	0.100
515.300	1.283	0.100
515.400	11.476	0.100
515.500	16.676	0.100
515.600	5.265	0.100
515.700	-1.627	0.100
515.800	-1.224	0.100
515.900	5.836	0.100
516.000	4.589	0.100
516.100	16.131	0.100
516.200	12.829	0.100
516.300	-4.676	0.100
516.400	-4.564	0.100
516.500	7.289	0.100
516.600	1.692	0.100
516.700	2.088	0.100
516.800	10.557	0.100
516.900	6.683	0.100
517.000	-1.614	0.100
517.100	1.725	0.100
517.200	-5.127	0.100
517.300	-3.054	0.100
517.400	7.194	0.100
517.500	9.805	0.100
517.600	7.322	0.100
517.700	1.045	0.100
517.800	3.836	0.100
517.900	2.792	0.100
518.000	-5.915	0.100
518.100	12.576	0.100
518.200	0.069	0.100
518.300	0.377	0.100
518.400	9.130	0.100
518.500	3.872	0.100
518.600	5.266	0.100
518.700	3.643	0.100
518.800	15.601	0.100
518.900	-4.789	0.100
519.000	17.433	0.100
519.100	-2.441	0.100
519.200	-1.833	0.100
519.300	7.895	0.100
519.400	4.579	0.100
519.500	3.730	0.100
519.600	13.865	0.100
519.700	5.457	0.100
519.800	-3.642	0.100
519.900	6.031	0.100
520.000	4.031	0.100
520.100	-2.469	0.100
520.200	13.552	0.100
520.300	9.397	0.100
520.400	12.074	0.100
520.500	4.668	0.100
520.600	8.721	0.100
520.700	-3.341	0.100
520.800	-3.870	0.100
520.900	6.697	0.100
521.000	8.184	0.100
521.100	-4.497	0.100
521.200	-6.629	0.100
521.300	-7.458	0.100
521.400	6.367	0.100
521.500	3.144	0.100
521.600	13.257	0.100
521.700	14.568	0.100
521.800	3.039	0.100
521.900	5.866	0.100
522.000	2.653	0.100
522.100	-5.612	0.100
522.200	-3.832	0.100
522.300	14.542	0.100
522.400	4.723	0.100
522.500	14.785	0.100
522.600	5.020	0.100
522.700	-3.048	0.100
522.800	9.213	0.100
522.900	2.332	0.100
523.000	5.543	0.100
523.100	1.682	0.100
523.200	15.197	0.100
523.300	-0.403	0.100
523.400	-3.671	0.100
523.500	1.319	0.100
523.600	-13.965	0.100
523.700	3.148	0.100
523.800	-5.602	0.100
523.900	-6.054	0.100
524.000	7.422	0.100
524.100	-4.038	0.100
524.200	6.977	0.100
524.300	0.668	0.100
524.400	-3.034	0.100
524.500	9.202	0.100
524.600	-0.518	0.100
524.700	6.926	0.100
524.800	-1.898	0.100
524.900	-0.152	0.100
525.000	-10.978	0.100
525.100	15.091	0.100
525.200	10.821	0.100
525.300	10.770	0.100
525.400	6.127	0.100
525.500	5.783	0.100
525.600	-6.395	0.100
525.700	2.386	0.100
525.800	5.179	0.100
525.900	9.985	0.100
526.000	1.501	0.100
526.100	0.326	0.100
526.200	2.657	0.100
526.300	0.932	0.100
526.400	11.171	0.100
526.500	-0.055	0.100
526.600	10.728	0.100
526.700	14.356	0.100
526.800	-7.068	0.100
526.900	-1.101	0.100
527.000	5.113	0.100
527.100	-5.404	0.100
527.200	5.903	0.100
527.300	-2.137	0.100
527.400	3.821	0.100
527.500	0.506	0.100
527.600	5.769	0.100
527.700	-8.085	0.100
527.800	8.088	0.100
527.900	7.443	0.100
528.000	7.410	0.100
528.100	-0.048	0.100
528.200	1.410	0.100
528.300	9.396	0.100
528.400	-13.765	0.100
528.500	1.886	0.100
528.600	4.496	0.100
528.700	-8.332	0.100
528.800	16.090	0.100
528.900	10.233	0.100
529.000	0.650	0.100
529.100	11.120	0.100
529.200	-5.901	0.100
529.300	-1.912	0.100
529.400	4.996	0.100
529.500	11.242	0.100
529.600	7.043	0.100
529.700	3.064	0.100
529.800	-8.226	0.100
529.900	4.356	0.100
530.000	-5.201	0.100
530.100	1.000	0.100
530.200	4.336	0.100
530.300	3.962	0.100
530.400	20.746	0.100
530.500	21.822	0.100
530.600	-12.239	0.100
530.700	-5.007	0.100
530.800	13.673	0.100
530.900	-6.245	0.100
531.000	13.162	0.100
531.100	0.897	0.100
531.200	12.984	0.100
531.300	1.869	0.100
531.400	1.103	0.100
531.500	11.222	0.100
531.600	1.621	0.100
531.700	-0.424	0.100
531.800	-3.988	0.100
531.900	-3.129	0.100
532.000	10.356	0.100
532.100	-6.521	0.100
532.200	8.592	0.100
532.300	-4.054	0.100
532.400	12.635	0.100
532.500	7.764	0.100
532.600	-12.857	0.100
532.700	4.389	0.100
532.800	5.935	0.100
532.900	-9.063	0.100
533.000	-11.170	0.100
533.100	-1.308	0.100
533.200	1.515	0.100
533.300	4.837	0.100
533.400	7.937	0.100
533.500	0.451	0.100
533.600	8.200	0.100
533.700	7.793	0.100
533.800	2.575	0.100
533.900	6.714	0.100
534.000	-2.445	0.100
534.100	-3.173	0.100
534.200	3.153	0.100
534.300	12.063	0.100
534.400	-16.287	0.100
534.500	9.904	0.100
534.600	0.525	0.100
534.700	-2.169	0.100
534.800	15.214	0.100
534.900	-0.795	0.100
535.000	19.379	0.100
535.100	8.466	0.100
535.200	9.959	0.100
535.300	-20.968	0.100
535.400	5.758	0.100
535.500	-10.070	0.100
535.600	4.945	0.100
535.700	4.003	0.100
535.800	10.059	0.100
535.900	13.383	0.100
536.000	-7.210	0.100
536.100	10.598	0.100
536.200	0.251	0.100
536.300	1.666	0.100
536.400	6.259	0.100
536.500	8.122	0.100
536.600	16.512	0.100
536.700	-6.155	0.100
536.800	7.033	0.100
536.900	4.577	0.100
537.000	0.037	0.100
537.100	-1.342	0.100
537.200	5.144	0.100
537.300	-4.511	0.100
537.400	8.101	0.100
537.500	5.088	0.100
537.600	0.829	0.100
537.700	7.315	0.100
537.800	-0.650	0.100
537.900	-1.247	0.100
538.000	2.378	0.100
538.100	-10.257	0.100
538.200	0.526	0.100
538.300	4.822	0.100
538.400	6.177	0.100
538.500	-3.245	0.100
538.600	4.557	0.100
538.700	1.224	0.100
538.800	10.901	0.100
538.900	-7.262	0.100
539.000	3.697	0.100
539.100	0.014	0.100
539.200	9.343	0.100
539.300	2.094	0.100
539.400	0.160	0.100
539.500	-6.863	0.100
539.600	9.123	0.100
539.700	3.322	0.100
539.800	5.969	0.100
539.900	9.044	0.100
540.000	-2.538	0.100
540.100	9.546	0.100
540.200	-4.077	0.100
540.300	4.249	0.100
540.400	4.511	0.100
540.500	3.333	0.100
540.600	-4.734	0.100
540.700	2.660	0.100
540.800	6.562	0.100
540.900	10.271	0.100
541.000	6.751	0.100
541.100	3.813	0.100
541.200	-5.610	0.100
541.300	3.340	0.100
541.400	-13.262	0.100
541.500	-2.763	0.100
541.600	-2.557	0.100
541.700	-2.687	0.100
541.800	7.437	0.100
541.900	4.656	0.100
542.000	-13.923	0.100
542.100	12.707	0.100
542.200	-1.924	0.100
542.300	-2.934	0.100
542.400	-7.541	0.100
542.500	1.339	0.100
542.600	-15.907	0.100
542.700	-10.908	0.100
542.800	20.949	0.100
542.900	-4.856	0.100
543.000	-8.120	0.100
543.100	9.944	0.100
543.200	9.592	0.100
543.300	4.724	0.100
543.400	-2.079	0.100
543.500	-4.651	0.100
543.600	0.299	0.100
543.700	4.042	0.100
543.800	-6.850	0.100
543.900	10.243	0.100
544.000	3.085	0.100
544.100	3.482	0.100
544.200	6.126	0.100
544.300	5.002	0.100
544.400	3.491	0.100
544.500	-0.216	0.100
544.600	-11.313	0.100
544.700	3.103	0.100
544.800	2.694	0.100
544.900	0.028	0.100
545.000	7.145	0.100
545.100	-9.269	0.100
545.200	-6.572	0.100
545.300	11.817	0.100
545.400	0.035	0.100
545.500	-14.159	0.100
545.600	5.908	0.100
545.700	-6.525	0.100
545.800	3.485	0.100
545.900	1.619	0.100
546.000	6.732	0.100
546.100	6.894	0.100
546.200	-22.544	0.100
546.300	-3.887	0.100
546.400	3.506	0.100
546.500	2.442	0.100
546.600	-12.401	0.100
546.700	-2.667	0.100
546.800	6.235	0.100
546.900	-13.214	0.100
547.000	3.328	0.100
547.100	6.108	0.100
547.200	12.481	0.100
547.300	-0.546	0.100
547.400	4.139	0.100
547.500	-11.990	0.100
547.600	2.655	0.100
547.700	10.691	0.100
547.800	-3.532	0.100
547.900	-11.399	0.100
548.000	-8.674	0.100
548.100	15.532	0.100
548.200	-6.516	0.100
548.300	-22.060	0.100
548.400	6.303	0.100
548.500	-5.238	0.100
548.600	7.711	0.100
548.700	2.475	0.100
548.800	-21.934	0.100
548.900	-6.036	0.100
549.000	3.458	0.100
549.100	-3.256	0.100
549.200	-8.055	0.100
549.300	-5.848	0.100
549.400	0.625	0.100
549.500	-0.392	0.100
549.600	-4.320	0.100
549.700	-3.703	0.100
549.800	-10.220	0.100
549.900	-7.325	0.100
550.000	-6.565	0.100
550.100	3.553	0.100
550.200	4.931	0.100
550.300	-14.733	0.100
550.400	-1.359	0.100
550.500	0.282	0.100
550.600	-3.273	0.100
550.700	1.151	0.100
550.800	7.136	0.100
550.900	-10.198	0.100
551.000	-2.036	0.100
551.100	-12.938	0.100
551.200	6.958	0.100
551.300	-17.242	0.100
551.400	-9.305	0.100
551.500	9.670	0.100
551.600	-1.175	0.100
551.700	-11.011	0.100
551.800	-14.437	0.100
551.900	-5.803	0.100
552.000	2.438	0.100
552.100	-11.352	0.100
552.200	-18.660	0.100
552.300	4.919	0.100
552.400	0.775	0.100
552.500	-0.082	0.100
552.600	6.744	0.100
552.700	-7.216	0.100
552.800	-7.447	0.100
552.900	-7.789	0.100
553.000	3.577	0.100
553.100	3.310	0.100
553.200	-7.118	0.100
553.300	-9.598	0.100
553.400	-2.528	0.100
553.500	-14.477	0.100
553.600	-8.837	0.100
553.700	-4.222	0.100
553.800	0.998	0.100
553.900	7.576	0.100
554.000	0.259	0.100
554.100	-1.784	0.100
554.200	0.835	0.100
554.300	-17.616	0.100
554.400	-3.438	0.100
554.500	-4.475	0.100
554.600	-3.061	0.100
554.700	0.296	0.100
554.800	-12.396	0.100
554.900	-3.253	0.100
555.000	10.093	0.100
555.100	-6.429	0.100
555.200	-5.082	0.100
555.300	-8.137	0.100
555.400	-3.184	0.100
555.500	-9.569	0.100
555.600	-6.495	0.100
555.700	13.204	0.100
555.800	-15.308	0.100
555.900	6.806	0.100
556.000	2.158	0.100
556.100	-3.910	0.100
556.200	5.392	0.100
556.300	-4.399	0.100
556.400	3.014	0.100
556.500	-16.536	0.100
556.600	-13.404	0.100
556.700	-4.379	0.100
556.800	-7.262	0.100
556.900	-15.726	0.100
557.000	-5.080	0.100
557.100	-1.937	0.100
557.200	-8.379	0.100
557.300	-6.914	0.100
557.400	2.569	0.100
557.500	-12.950	0.100
557.600	0.880	0.100
557.700	-2.154	0.100
557.800	-17.620	0.100
557.900	-3.889	0.100
558.000	0.383	0.100
558.100	3.631	0.100
558.200	-6.171	0.100
558.300	-11.238	0.100
558.400	2.773	0.100
558.500	-5.638	0.100
558.600	-8.421	0.100
558.700	-7.530	0.100
558.800	10.795	0.100
558.900	11.757	0.100
559.000	-0.860	0.100
559.100	2.155	0.100
559.200	-9.122	0.100
559.300	-19.784	0.100
559.400	-2.447	0.100
559.500	7.391	0.100
559.600	-0.416	0.100
559.700	3.728	0.100
559.800	5.167	0.100
559.900	2.171	0.100
560.000	-12.056	0.100
560.100	2.898	0.100
560.200	1.709	0.100
560.300	-7.874	0.100
560.400	-8.303	0.100
560.500	-1.409	0.100
560.600	1.987	0.100
560.700	-8.606	0.100
560.800	-5.633	0.100
560.900	-3.169	0.100
561.000	-13.893	0.100
561.100	0.208	0.100
561.200	-15.260	0.100
561.300	15.567	0.100
561.400	6.893	0.100
561.500	-1.645	0.100
561.600	-9.997	0.100
561.700	-4.741	0.100
561.800	-16.102	0.100
561.900	5.623	0.100
562.000	3.995	0.100
562.100	16.270	0.100
562.200	-8.257	0.100
562.300	-1.961	0.100
562.400	-9.083	0.100
562.500	-4.915	0.100
562.600	-6.064	0.100
562.700	12.908	0.100
562.800	-5.919	0.100
562.900	-0.618	0.100
563.000	-0.411	0.100
563.100	-4.249	0.100
563.200	-17.098	0.100
563.300	0.881	0.100
563.400	-8.418	0.100
563.500	-4.953	0.100
563.600	5.950	0.100
563.700	-7.787	0.100
563.800	0.129	0.100
563.900	-1.910	0.100
564.000	-10.783	0.100
564.100	14.373	0.100
564.200	-10.147	0.100
564.300	-6.088	0.100
564.400	-20.066	0.100
564.500	6.735	0.100
564.600	-7.982	0.100
564.700	4.979	0.100
564.800	-12.401	0.100
564.900	-0.010	0.100
565.000	-3.185	0.100
565.100	-4.826	0.100
565.200	3.234	0.100
565.300	-12.680	0.100
565.400	-4.050	0.100
565.500	-5.052	0.100
565.600	-5.480	0.100
565.700	-7.611	0.100
565.800	-5.157	0.100
565.900	-3.773	0.100
566.000	-15.596	0.100
566.100	6.492	0.100
566.200	-6.378	0.100
566.300	11.842	0.100
566.400	-10.351	0.100
566.500	-8.776	0.100
566.600	8.537	0.100
566.700	-7.066	0.100
566.800	2.423	0.100
566.900	-6.444	0.100
567.000	3.435	0.100
567.100	4.349	0.100
567.200	4.033	0.100
567.300	3.523	0.100
567.400	0.351	0.100
567.500	-14.898	0.100
567.600	-0.678	0.100
567.700	10.806	0.100
567.800	2.251	0.100
567.900	-15.891	0.100
568.000	-11.734	0.100
568.100	-19.120	0.100
568.200	4.881	0.100
568.300	21.405	0.100
568.400	-0.046	0.100
568.500	-1.034	0.100
568.600	-5.617	0.100
568.700	-4.971	0.100
568.800	12.021	0.100
568.900	-4.928	0.100
569.000	-2.243	0.100
569.100	-24.436	0.100
569.200	-9.447	0.100
569.300	-9.012	0.100
569.400	-4.319	0.100
569.500	-0.510	0.100
569.600	0.918	0.100
569.700	-12.652	0.100
569.800	2.703	0.100
569.900	-11.335	0.100
570.000	-9.671	0.100
570.100	0.464	0.100
570.200	1.550	0.100
570.300	3.976	0.100
570.400	-0.182	0.100
570.500	6.623	0.100
570.600	7.146	0.100
570.700	1.475	0.100
570.800	-10.144	0.100
570.900	-1.677	0.100
571.000	-16.920	0.100
571.100	-7.039	0.100
571.200	4.256	0.100
571.300	-5.175	0.100
571.400	-0.444	0.100
571.500	5.945	0.100
571.600	-7.488	0.100
571.700	-7.935	0.100
571.800	5.848	0.100
571.900	-5.732	0.100
572.000	-2.182	0.100
572.100	6.362	0.100
572.200	11.660	0.100
572.300	4.283	0.100
572.400	0.101	0.100
572.500	-20.824	0.100
572.600	-0.839	0.100
572.700	8.813	0.100
572.800	-12.202	0.100
572.900	-10.181	0.100
573.000	-1.686	0.100
573.100	1.698	0.100
573.200	-11.415	0.100
573.300	-13.697	0.100
573.400	7.595	0.100
573.500	0.330	0.100
573.600	11.300	0.100
573.700	-6.559	0.100
573.800	-10.989	0.100
573.900	-8.621	0.100
574.000	-4.141	0.100
574.100	11.072	0.100
574.200	-4.895	0.100
574.300	-5.380	0.100
574.400	2.771	0.100
574.500	5.591	0.100
574.600	-0.872	0.100
574.700	-1.408	0.100
574.800	-3.296	0.100
574.900	5.987	0.100
575.000	-12.445	0.100
575.100	-10.663	0.100
575.200	-14.249	0.100
575.300	-6.578	0.100
575.400	0.857	0.100
575.500	4.917	0.100
575.600	8.036	0.100
575.700	-5.673	0.100
575.800	0.319	0.100
575.900	-8.120	0.100
576.000	-0.794	0.100
576.100	-10.390	0.100
576.200	2.003	0.100
576.300	2.481	0.100
576.400	-4.669	0.100
576.500	-3.750	0.100
576.600	10.610	0.100
576.700	-1.363	0.100
576.800	-11.901	0.100
576.900	-8.920	0.100
577.000	-10.097	0.100
577.100	6.507	0.100
577.200	-9.373	0.100
577.300	-10.125	0.100
577.400	1.816	0.100
577.500	4.604	0.100
577.600	0.107	0.100
577.700	-10.554	0.100
577.800	1.009	0.100
577.900	7.354	0.100
578.000	-16.332	0.100
578.100	-2.625	0.100
578.200	-4.755	0.100
578.300	-1.028	0.100
578.400	-12.479	0.100
578.500	-8.600	0.100
578.600	-8.212	0.100
578.700	0.515	0.100
578.800	-5.905	0.100
578.900	-12.450	0.100
579.000	4.543	0.100
579.100	7.802	0.100
579.200	-1.975	0.100
579.300	0.883	0.100
579.400	-15.708	0.100
579.500	-1.912	0.100
579.600	-2.579	0.100
579.700	-5.771	0.100
579.800	7.132	0.100
579.900	4.927	0.100
580.000	0.044	0.100
580.100	-1.738	0.100
580.200	-1.955	0.100
580.300	-5.487	0.100
580.400	1.316	0.100
580.500	-6.324	0.100
580.600	-2.987	0.100
580.700	0.761	0.100
580.800	-9.801	0.100
580.900	9.638	0.100
581.000	7.030	0.100
581.100	3.686	0.100
581.200	-2.570	0.100
581.300	-10.107	0.100
581.400	-7.590	0.100
581.500	-9.753	0.100
581.600	2.907	0.100
581.700	-1.509	0.100
581.800	-3.201	0.100
581.900	-9.324	0.100
582.000	-2.210	0.100
582.100	0.602	0.100
582.200	4.608	0.100
582.300	0.946	0.100
582.400	2.185	0.100
582.500	1.872	0.100
582.600	-10.664	0.100
582.700	-8.994	0.100
582.800	21.072	0.100
582.900	6.113	0.100
583.000	-4.268	0.100
583.100	-6.205	0.100
583.200	-11.534	0.100
583.300	3.283	0.100
583.400	-6.006	0.100
583.500	4.870	0.100
583.600	16.679	0.100
583.700	-12.138	0.100
583.800	9.755	0.100
583.900	-2.550	0.100
584.000	-8.810	0.100
584.100	5.637	0.100
584.200	-17.194	0.100
584.300	4.096	0.100
584.400	-3.213	0.100
584.500	-0.872	0.100
584.600	7.778	0.100
584.700	-7.525	0.100
584.800	-11.886	0.100
584.900	-4.848	0.100
585.000	-6.738	0.100
585.100	-0.439	0.100
585.200	-4.852	0.100
585.300	2.394	0.100
585.400	-7.569	0.100
585.500	-14.725	0.100
585.600	3.118	0.100
585.700	-10.519	0.100
585.800	8.022	0.100
585.900	-6.752	0.100
586.000	-2.213	0.100
586.100	5.678	0.100
586.200	-0.788	0.100
586.300	-12.145	0.100
586.400	-2.030	0.100
586.500	-1.757	0.100
586.600	-9.633	0.100
586.700	-1.173	0.100
586.800	-3.688	0.100
586.900	2.652	0.100
587.000	-2.203	0.100
587.100	-16.589	0.100
587.200	-4.995	0.100
587.300	7.485	0.100
587.400	8.559	0.100
587.500	-10.949	0.100
587.600	-0.557	0.100
587.700	-1.962	0.100
587.800	-1.345	0.100
587.900	-11.908	0.100
588.000	7.550	0.100
588.100	-12.961	0.100
588.200	-6.442	0.100
588.300	0.109	0.100
588.400	1.674	0.100
588.500	-12.532	0.100
588.600	-3.802	0.100
588.700	-9.167	0.100
588.800	-1.770	0.100
588.900	-16.276	0.100
589.000	1.093	0.100
589.100	0.990	0.100
589.200	-1.837	0.100
589.300	2.530	0.100
589.400	4.429	0.100
589.500	3.616	0.100
589.600	-0.386	0.100
589.700	2.475	0.100
589.800	0.654	0.100
589.900	6.673	0.100
590.000	-8.405	0.100
590.100	-8.829	0.100
590.200	6.417	0.100
590.300	1.934	0.100
590.400	-3.293	0.100
590.500	-5.353	0.100
590.600	1.790	0.100
590.700	-7.501	0.100
590.800	5.437	0.100
590.900	-3.424	0.100
591.000	-3.141	0.100
591.100	-3.858	0.100
591.200	-2.424	0.100
591.300	0.270	0.100
591.400	13.434	0.100
591.500	-7.723	0.100
591.600	-15.954	0.100
591.700	5.576	0.100
591.800	12.896	0.100
591.900	11.199	0.100
592.000	-17.326	0.100
592.100	-0.645	0.100
592.200	6.691	0.100
592.300	-10.748	0.100
592.400	2.620	0.100
592.500	-0.827	0.100
592.600	-10.167	0.100
592.700	-30.346	0.100
592.800	8.079	0.100
592.900	5.325	0.100
593.000	5.200	0.100
593.100	0.757	0.100
593.200	-5.118	0.100
593.300	-9.831	0.100
593.400	-0.292	0.100
593.500	-0.594	0.100
593.600	0.344	0.100
593.700	-14.234	0.100
593.800	-8.267	0.100
593.900	8.831	0.100
594.000	9.404	0.100
594.100	3.780	0.100
594.200	-8.858	0.100
594.300	4.974	0.100
594.400	-4.751	0.100
594.500	-9.222	0.100
594.600	-1.465	0.100
594.700	-9.805	0.100
594.800	1.294	0.100
594.900	-6.164	0.100
595.000	7.074	0.100
595.100	2.365	0.100
595.200	2.991	0.100
595.300	-2.912	0.100
595.400	-0.348	0.100
595.500	-3.009	0.100
595.600	-5.727	0.100
595.700	-4.750	0.100
595.800	-7.494	0.100
595.900	4.564	0.100
596.000	-5.721	0.100
596.100	2.517	0.100
596.200	-4.508	0.100
596.300	0.765	0.100
596.400	9.372	0.100
596.500	-2.776	0.100
596.600	3.458	0.100
596.700	5.273	0.100
596.800	-18.053	0.100
596.900	0.325	0.100
597.000	13.543	0.100
597.100	2.750	0.100
597.200	4.305	0.100
597.300	-3.461	0.100
597.400	7.461	0.100
597.500	0.423	0.100
597.600	-9.017	0.100
597.700	-0.873	0.100
597.800	-3.486	0.100
597.900	-10.513	0.100
598.000	-1.701	0.100
598.100	7.367	0.100
598.200	-3.742	0.100
598.300	-1.972	0.100
598.400	-3.483	0.100
598.500	-4.077	0.100
598.600	-6.825	0.100
598.700	7.271	0.100
598.800	5.264	0.100
598.900	2.131	0.100
599.000	-16.785	0.100
599.100	-6.169	0.100
599.200	-0.597	0.100
599.300	16.754	0.100
599.400	-6.346	0.100
599.500	3.377	0.100
599.600	-2.867	0.100
599.700	-1.024	0.100
599.800	-1.061	0.100
599.900	3.897	0.100
600.000	-5.630	0.100
600.100	-6.622	0.100
600.200	-5.432	0.100
600.300	5.740	0.100
600.400	-4.597	0.100
600.500	-6.381	0.100
600.600	7.572	0.100
600.700	-10.759	0.100
600.800	-14.188	0.100
600.900	-12.226	0.100
601.000	-7.795	0.100
601.100	0.794	0.100
601.200	5.670	0.100
601.300	3.753	0.100
601.400	-11.015	0.100
601.500	-6.921	0.100
601.600	2.438	0.100
601.700	-8.222	0.100
601.800	-5.793	0.100
601.900	8.960	0.100
602.000	2.218	0.100
602.100	0.261	0.100
602.200	-16.261	0.100
602.300	4.469	0.100
602.400	5.578	0.100
602.500	9.463	0.100
602.600	-5.760	0.100
602.700	1.727	0.100
602.800	-14.882	0.100
602.900	-15.677	0.100
603.000	-1.588	0.100
603.100	1.688	0.100
603.200	-5.013	0.100
603.300	-7.106	0.100
603.400	12.384	0.100
603.500	8.061	0.100
603.600	-4.133	0.100
603.700	5.539	0.100
603.800	-7.660	0.100
603.900	-4.143	0.100
604.000	8.340	0.100
604.100	3.302	0.100
604.200	23.227	0.100
604.300	-5.042	0.100
604.400	1.215	0.100
604.500	-4.035	0.100
604.600	2.844	0.100
604.700	6.450	0.100
604.800	-0.830	0.100
604.900	-5.911	0.100
605.000	-4.757	0.100
605.100	-9.552	0.100
605.200	-1.850	0.100
605.300	-2.514	0.100
605.400	-11.362	0.100
605.500	5.608	0.100
605.600	-2.583	0.100
605.700	-4.799	0.100
605.800	5.287	0.100
605.900	4.286	0.100
606.000	1.624	0.100
606.100	-10.440	0.100
606.200	-20.762	0.100
606.300	-7.240	0.100
606.400	11.756	0.100
606.500	-3.898	0.100
606.600	18.975	0.100
606.700	-2.313	0.100
606.800	-25.786	0.100
606.900	-0.490	0.100
607.000	-9.423	0.100
607.100	-11.453	0.100
607.200	12.147	0.100
607.300	7.056	0.100
607.400	8.448	0.100
607.500	5.266	0.100
607.600	-9.886	0.100
607.700	8.989	0.100
607.800	-4.701	0.100
607.900	-8.310	0.100
608.000	-1.900	0.100
608.100	0.308	0.100
608.200	-16.820	0.100
608.300	3.729	0.100
608.400	-0.743	0.100
608.500	-2.910	0.100
608.600	6.912	0.100
608.700	-2.358	0.100
608.800	-3.610	0.100
608.900	-12.801	0.100
609.000	-3.583	0.100
609.100	-3.342	0.100
609.200	-3.383	0.100
609.300	13.154	0.100
609.400	-6.209	0.100
609.500	4.139	0.100
609.600	0.051	0.100
609.700	2.152	0.100
609.800	-9.867	0.100
609.900	-6.735	0.100
610.000	5.517	0.100
610.100	6.439	0.100
610.200	-13.167	0.100
610.300	-5.875	0.100
610.400	14.229	0.100
610.500	2.634	0.100
610.600	-31.231	0.100
610.700	-4.940	0.100
610.800	2.824	0.100
610.900	-2.348	0.100
611.000	-8.863	0.100
611.100	-6.844	0.100
611.200	1.237	0.100
611.300	7.397	0.100
611.400	-11.396	0.100
611.500	-2.595	0.100
611.600	-4.086	0.100
611.700	12.365	0.100
611.800	-6.233	0.100
611.900	-0.475	0.100
612.000	-8.899	0.100
612.100	1.983	0.100
612.200	-3.718	0.100
612.300	-10.517	0.100
612.400	0.042	0.100
612.500	4.077	0.100
612.600	-2.096	0.100
612.700	0.968	0.100
612.800	-1.339	0.100
612.900	-0.487	0.100
613.000	13.507	0.100
613.100	-16.303	0.100
613.200	-20.893	0.100
613.300	7.271	0.100
613.400	4.463	0.100
613.500	13.447	0.100
613.600	-0.074	0.100
613.700	3.150	0.100
613.800	0.192	0.100
613.900	-9.882	0.100
614.000	7.595	0.100
614.100	-11.273	0.100
614.200	-12.539	0.100
614.300	-3.213	0.100
614.400	-5.335	0.100
614.500	1.290	0.100
614.600	-0.063	0.100
614.700	-12.628	0.100
614.800	7.804	0.100
614.900	8.894	0.100
615.000	-4.171	0.100
615.100	22.726	0.100
615.200	3.453	0.100
615.300	0.166	0.100
615.400	-1.379	0.100
615.500	0.149	0.100
615.600	3.266	0.100
615.700	-4.825	0.100
615.800	-5.667	0.100
615.900	3.069	0.100
616.000	12.604	0.100
616.100	-15.148	0.100
616.200	3.760	0.100
616.300	-7.204	0.100
616.400	-17.587	0.100
616.500	12.713	0.100
616.600	9.287	0.100
616.700	-6.808	0.100
616.800	6.350	0.100
616.900	7.886	0.100
617.000	8.273	0.100
617.100	7.969	0.100
617.200	-3.999	0.100
617.300	2.442	0.100
617.400	4.513	0.100
617.500	-18.143	0.100
617.600	-4.131	0.100
617.700	-6.219	0.100
617.800	5.873	0.100
617.900	-8.382	0.100
618.000	-12.149	0.100
618.100	-0.654	0.100
618.200	11.938	0.100
618.300	-6.514	0.100
618.400	-3.696	0.100
618.500	22.126	0.100
618.600	5.992	0.100
618.700	-10.776	0.100
618.800	-5.482	0.100
618.900	-5.359	0.100
619.000	4.967	0.100
619.100	7.138	0.100
619.200	3.261	0.100
619.300	8.200	0.100
619.400	-14.457	0.100
619.500	-1.768	0.100
619.600	5.219	0.100
619.700	-2.693	0.100
619.800	-6.616	0.100
619.900	3.815	0.100
620.000	7.512	0.100
620.100	-8.632	0.100
620.200	2.479	0.100
620.300	0.214	0.100
620.400	5.859	0.100
620.500	-10.458	0.100
620.600	-4.207	0.100
620.700	4.837	0.100
620.800	0.337	0.100
620.900	-0.317	0.100
621.000	-2.384	0.100
621.100	8.469	0.100
621.200	11.057	0.100
621.300	-6.963	0.100
621.400	0.462	0.100
621.500	1.805	0.100
621.600	16.342	0.100
621.700	-11.696	0.100
621.800	6.278	0.100
621.900	7.894	0.100
622.000	0.396	0.100
622.100	-15.838	0.100
622.200	13.083	0.100
622.300	-4.476	0.100
622.400	0.014	0.100
622.500	6.681	0.100
622.600	1.353	0.100
622.700	1.717	0.100
622.800	-26.991	0.100
622.900	-7.450	0.100
623.000	12.474	0.100
623.100	3.785	0.100
623.200	5.094	0.100
623.300	-9.983	0.100
623.400	4.431	0.100
623.500	-7.794	0.100
623.600	-0.159	0.100
623.700	1.432	0.100
623.800	-7.508	0.100
623.900	4.891	0.100
624.000	13.821	0.100
624.100	-5.287	0.100
624.200	-7.893	0.100
624.300	-2.276	0.100
624.400	-8.309	0.100
624.500	4.787	0.100
624.600	4.567	0.100
624.700	9.485	0.100
624.800	1.482	0.100
624.900	-2.537	0.100
625.000	1.251	0.100
625.100	2.689	0.100
625.200	-8.683	0.100
625.300	-5.344	0.100
625.400	-1.745	0.100
625.500	6.490	0.100
625.600	1.590	0.100
625.700	-4.118	0.100
625.800	-6.113	0.100
625.900	9.051	0.100
626.000	5.431	0.100
626.100	-2.291	0.100
626.200	-12.268	0.100
626.300	12.355	0.100
626.400	-3.057	0.100
626.500	0.933	0.100
626.600	-4.479	0.100
626.700	-0.049	0.100
626.800	0.500	0.100
626.900	2.142	0.100
627.000	18.584	0.100
627.100	-0.515	0.100
627.200	0.995	0.100
627.300	-1.738	0.100
627.400	-3.986	0.100
627.500	10.722	0.100
627.600	-9.875	0.100
627.700	4.604	0.100
627.800	-11.775	0.100
627.900	-20.865	0.100
628.000	19.756	0.100
628.100	-10.658	0.100
628.200	-1.429	0.100
628.300	-6.473	0.100
628.400	3.951	0.100
628.500	3.267	0.100
628.600	14.695	0.100
628.700	-3.797	0.100
628.800	0.752	0.100
628.900	-5.155	0.100
629.000	-15.694	0.100
629.100	1.813	0.100
629.200	-1.974	0.100
629.300	9.092	0.100
629.400	-4.505	0.100
629.500	-1.213	0.100
629.600	5.259	0.100
629.700	0.505	0.100
629.800	4.432	0.100
629.900	-6.513	0.100
630.000	-9.624	0.100
630.100	-0.584	0.100
630.200	5.087	0.100
630.300	12.517	0.100
630.400	-0.734	0.100
630.500	-6.118	0.100
630.600	2.263	0.100
630.700	5.256	0.100
630.800	-3.430	0.100
630.900	5.009	0.100
631.000	-10.885	0.100
631.100	4.221	0.100
631.200	-1.250	0.100
631.300	10.723	0.100
631.400	7.244	0.100
631.500	3.102	0.100
631.600	11.231	0.100
631.700	-7.167	0.100
631.800	6.910	0.100
631.900	2.202	0.100
632.000	2.330	0.100
632.100	2.126	0.100
632.200	-16.512	0.100
632.300	4.200	0.100
632.400	10.365	0.100
632.500	-1.324	0.100
632.600	-19.117	0.100
632.700	2.911	0.100
632.800	-15.786	0.100
632.900	7.374	0.100
633.000	14.525	0.100
633.100	9.231	0.100
633.200	-10.723	0.100
633.300	11.385	0.100
633.400	1.053	0.100
633.500	15.273	0.100
633.600	-4.665	0.100
633.700	1.762	0.100
633.800	3.666	0.100
633.900	11.701	0.100
634.000	11.362	0.100
634.100	9.129	0.100
634.200	15.608	0.100
634.300	2.085	0.100
634.400	-2.714	0.100
634.500	3.726	0.100
634.600	5.358	0.100
634.700	2.554	0.100
634.800	19.337	0.100
634.900	7.451	0.100
635.000	-2.404	0.100
635.100	17.929	0.100
635.200	-1.162	0.100
635.300	20.539	0.100
635.400	-10.578	0.100
635.500	13.125	0.100
635.600	19.788	0.100
635.700	12.029	0.100
635.800	0.551	0.100
635.900	13.224	0.100
636.000	3.500	0.100
636.100	0.421	0.100
636.200	17.809	0.100
636.300	2.919	0.100
636.400	5.111	0.100
636.500	0.814	0.100
636.600	21.285	0.100
636.700	12.155	0.100
636.800	-0.882	0.100
636.900	-11.272	0.100
637.000	9.227	0.100
637.100	7.958	0.100
637.200	-0.161	0.100
637.300	5.399	0.100
637.400	14.326	0.100
637.500	6.795	0.100
637.600	6.753	0.100
637.700	12.018	0.100
637.800	6.640	0.100
637.900	5.207	0.100
638.000	8.038	0.100
638.100	-10.288	0.100
638.200	23.397	0.100
638.300	-0.998	0.100
638.400	-8.782	0.100
638.500	13.715	0.100
638.600	14.205	0.100
638.700	15.289	0.100
638.800	12.606	0.100
638.900	-4.151	0.100
639.000	4.459	0.100
639.100	19.198	0.100
639.200	14.882	0.100
639.300	6.331	0.100
639.400	0.277	0.100
639.500	5.051	0.100
639.600	12.608	0.100
639.700	24.267	0.100
639.800	13.960	0.100
639.900	6.807	0.100
640.000	0.746	0.100
640.100	29.146	0.100
640.200	10.976	0.100
640.300	10.678	0.100
640.400	1.517	0.100
640.500	-1.131	0.100
640.600	6.535	0.100
640.700	6.235	0.100
640.800	0.302	0.100
640.900	14.646	0.100
641.000	14.549	0.100
641.100	9.436	0.100
641.200	29.158	0.100
641.300	-1.334	0.100
641.400	8.867	0.100
641.500	8.913	0.100
641.600	14.034	0.100
641.700	6.158	0.100
641.800	10.419	0.100
641.900	7.541	0.100
642.000	12.677	0.100
642.100	19.133	0.100
642.200	5.699	0.100
642.300	17.064	0.100
642.400	14.666	0.100
642.500	10.886	0.100
642.600	12.967	0.100
642.700	8.015	0.100
642.800	22.550	0.100
642.900	9.012	0.100
643.000	-4.617	0.100
643.100	-4.913	0.100
643.200	9.717	0.100
643.300	10.597	0.100
643.400	25.380	0.100
643.500	16.355	0.100
643.600	2.668	0.100
643.700	10.881	0.100
643.800	13.060	0.100
643.900	1.991	0.100
644.000	13.320	0.100
644.100	14.152	0.100
644.200	-4.804	0.100
644.300	16.246	0.100
644.400	23.278	0.100
644.500	2.057	0.100
644.600	1.489	0.100
644.700	15.172	0.100
644.800	14.104	0.100
644.900	1.492	0.100
645.000	19.009	0.100
645.100	0.464	0.100
645.200	5.652	0.100
645.300	11.670	0.100
645.400	6.765	0.100
645.500	8.552	0.100
645.600	0.627	0.100
645.700	19.083	0.100
645.800	6.798	0.100
645.900	4.223	0.100
646.000	6.041	0.100
646.100	28.834	0.100
646.200	15.614	0.100
646.300	10.195	0.100
646.400	13.390	0.100
646.500	8.385	0.100
646.600	14.212	0.100
646.700	6.736	0.100
646.800	23.371	0.100
646.900	17.748	0.100
647.000	-5.433	0.100
647.100	-0.817	0.100
647.200	8.418	0.100
647.300	13.031	0.100
647.400	11.242	0.100
647.500	-5.453	0.100
647.600	17.038	0.100
647.700	16.312	0.100
647.800	3.351	0.100
647.900	14.995	0.100
648.000	-1.700	0.100
648.100	5.072	0.100
648.200	-2.197	0.100
648.300	15.331	0.100
648.400	6.566	0.100
648.500	22.858	0.100
648.600	12.366	0.100
648.700	1.173	0.100
648.800	4.469	0.100
648.900	23.957	0.100
649.000	17.944	0.100
649.100	10.464	0.100
649.200	14.967	0.100
649.300	15.038	0.100
649.400	6.264	0.100
649.500	14.552	0.100
649.600	-3.481	0.100
649.700	20.218	0.100
649.800	19.327	0.100
649.900	3.240	0.100
650.000	-1.310	0.100
650.100	1.244	0.100
650.200	7.500	0.100
650.300	14.540	0.100
650.400	12.276	0.100
650.500	23.403	0.100
650.600	9.254	0.100
650.700	-2.790	0.100
650.800	15.536	0.100
650.900	16.354	0.100
651.000	11.115	0.100
651.100	11.236	0.100
651.200	13.514	0.100
651.300	22.596	0.100
651.400	5.052	0.100
651.500	9.550	0.100
651.600	5.693	0.100
651.700	1.025	0.100
651.800	30.843	0.100
651.900	14.064	0.100
652.000	14.239	0.100
652.100	-14.112	0.100
652.200	13.166	0.100
652.300	19.555	0.100
652.400	12.859	0.100
652.500	0.362	0.100
652.600	9.880	0.100
652.700	9.579	0.100
652.800	18.577	0.100
652.900	2.213	0.100
653.000	3.610	0.100
653.100	0.762	0.100
653.200	0.304	0.100
653.300	24.916	0.100
653.400	7.524	0.100
653.500	18.418	0.100
653.600	13.218	0.100
653.700	9.973	0.100
653.800	7.643	0.100
653.900	3.808	0.100
654.000	22.862	0.100
654.100	11.073	0.100
654.200	7.665	0.100
654.300	4.505	0.100
654.400	5.610	0.100
654.500	16.002	0.100
654.600	-0.919	0.100
654.700	20.620	0.100
654.800	14.708	0.100
654.900	4.656	0.100
655.000	19.368	0.100
655.100	2.867	0.100
655.200	9.797	0.100
655.300	5.597	0.100
655.400	6.308	0.100
655.500	4.141	0.100
655.600	17.366	0.100
655.700	7.554	0.100
655.800	6.051	0.100
655.900	9.724	0.100
656.000	24.813	0.100
656.100	-2.604	0.100
656.200	8.353	0.100
656.300	12.994	0.100
656.400	-6.085	0.100
656.500	11.868	0.100
656.600	9.914	0.100
656.700	4.825	0.100
656.800	13.091	0.100
656.900	-4.168	0.100
657.000	26.422	0.100
657.100	10.657	0.100
657.200	2.880	0.100
657.300	15.871	0.100
657.400	9.607	0.100
657.500	8.832	0.100
657.600	12.404	0.100
657.700	7.629	0.100
657.800	3.061	0.100
657.900	12.421	0.100
658.000	15.267	0.100
658.100	14.227	0.100
658.200	2.961	0.100
658.300	0.323	0.100
658.400	17.733	0.100
658.500	8.633	0.100
658.600	9.172	0.100
658.700	13.242	0.100
658.800	4.906	0.100
658.900	13.063	0.100
659.000	7.671	0.100
659.100	5.365	0.100
659.200	-4.289	0.100
659.300	8.025	0.100
659.400	11.337	0.100
659.500	11.727	0.100
659.600	18.549	0.100
659.700	-2.360	0.100
659.800	4.484	0.100
659.900	10.833	0.100
660.000	16.695	0.100
660.100	10.500	0.100
660.200	24.947	0.100
660.300	4.111	0.100
660.400	9.556	0.100
660.500	8.845	0.100
660.600	9.008	0.100
660.700	13.081	0.100
660.800	1.904	0.100
660.900	5.380	0.100
661.000	6.923	0.100
661.100	12.772	0.100
661.200	12.384	0.100
661.300	11.170	0.100
661.400	4.979	0.100
661.500	2.876	0.100
661.600	6.578	0.100
661.700	-2.034	0.100
661.800	12.441	0.100
661.900	12.729	0.100
662.000	0.684	0.100
662.100	1.834	0.100
662.200	11.516	0.100
662.300	16.500	0.100
662.400	-0.252	0.100
662.500	22.527	0.100
662.600	9.982	0.100
662.700	10.596	0.100
662.800	1.499	0.100
662.900	21.949	0.100
663.000	1.023	0.100
663.100	6.962	0.100
663.200	2.733	0.100
663.300	11.492	0.100
663.400	6.978	0.100
663.500	16.895	0.100
663.600	9.022	0.100
663.700	0.830	0.100
663.800	15.231	0.100
663.900	-2.531	0.100
664.000	6.143	0.100
664.100	9.270	0.100
664.200	11.325	0.100
664.300	14.050	0.100
664.400	-6.954	0.100
664.500	5.985	0.100
664.600	2.960	0.100
664.700	8.952	0.100
664.800	1.527	0.100
664.900	0.898	0.100
665.000	15.341	0.100
665.100	5.232	0.100
665.200	11.408	0.100
665.300	4.039	0.100
665.400	11.437	0.100
665.500	8.941	0.100
665.600	12.563	0.100
665.700	13.070	0.100
665.800	-2.679	0.100
665.900	12.479	0.100
666.000	-0.835	0.100
666.100	12.433	0.100
666.200	1.308	0.100
666.300	10.252	0.100
666.400	7.281	0.100
666.500	9.315	0.100
666.600	-2.009	0.100
666.700	7.819	0.100
666.800	13.507	0.100
666.900	7.217	0.100
667.000	9.744	0.100
667.100	-5.204	0.100
667.200	5.313	0.100
667.300	9.841	0.100
667.400	12.739	0.100
667.500	2.919	0.100
667.600	-0.054	0.100
667.700	4.651	0.100
667.800	-1.268	0.100
667.900	13.826	0.100
668.000	1.648	0.100
668.100	19.659	0.100
668.200	12.690	0.100
668.300	-4.353	0.100
668.400	11.916	0.100
668.500	12.361	0.100
668.600	-1.654	0.100
668.700	9.552	0.100
668.800	0.898	0.100
668.900	4.986	0.100
669.000	10.778	0.100
669.100	-4.531	0.100
669.200	12.580	0.100
669.300	3.331	0.100
669.400	14.458	0.100
669.500	3.197	0.100
669.600	6.989	0.100
669.700	-1.692	0.100
669.800	6.330	0.100
669.900	7.079	0.100
670.000	-0.903	0.100
670.100	11.187	0.100
670.200	-9.580	0.100
670.300	2.990	0.100
670.400	4.734	0.100
670.500	9.677	0.100
670.600	7.656	0.100
670.700	8.650	0.100
670.800	5.810	0.100
670.900	4.234	0.100
671.000	9.954	0.100
671.100	-2.884	0.100
671.200	0.317	0.100
671.300	8.037	0.100
671.400	1.302	0.100
671.500	4.119	0.100
671.600	1.216	0.100
671.700	6.719	0.100
671.800	10.668	0.100
671.900	11.349	0.100
672.000	17.953	0.100
672.100	-3.895	0.100
672.200	15.209	0.100
672.300	9.301	0.100
672.400	-11.267	0.100
672.500	-10.817	0.100
672.600	23.251	0.100
672.700	-7.683	0.100
672.800	13.359	0.100
672.900	6.553	0.100
673.000	9.294	0.100
673.100	-12.534	0.100
673.200	-6.204	0.100
673.300	12.748	0.100
673.400	7.582	0.100
673.500	5.998	0.100
673.600	-0.128	0.100
673.700	7.911	0.100
673.800	5.104	0.100
673.900	2.061	0.100
674.000	2.670	0.100
674.100	14.162	0.100
674.200	-0.974	0.100
674.300	-3.596	0.100
674.400	4.381	0.100
674.500	7.774	0.100
674.600	15.422	0.100
674.700	10.937	0.100
674.800	1.716	0.100
674.900	10.470	0.100
675.000	6.849	0.100
675.100	-8.993	0.100
675.200	9.264	0.100
675.300	4.407	0.100
675.400	6.815	0.100
675.500	1.581	0.100
675.600	5.840	0.100
675.700	-5.628	0.100
675.800	10.693	0.100
675.900	-2.204	0.100
676.000	5.539	0.100
676.100	7.732	0.100
676.200	6.225	0.100
676.300	0.883	0.100
676.400	17.140	0.100
676.500	-4.415	0.100
676.600	16.918	0.100
676.700	-0.884	0.100
676.800	-6.678	0.100
676.900	5.243	0.100
677.000	4.570	0.100
677.100	12.090	0.100
677.200	0.960	0.100
677.300	13.667	0.100
677.400	11.841	0.100
677.500	8.639	0.100
677.600	2.605	0.100
677.700	-3.937	0.100
677.800	0.085	0.100
677.900	6.385	0.100
678.000	-2.877	0.100
678.100	19.409	0.100
678.200	10.113	0.100
678.300	0.013	0.100
678.400	-5.446	0.100
678.500	18.330	0.100
678.600	-2.445	0.100
678.700	3.244	0.100
678.800	2.089	0.100
678.900	-3.557	0.100
679.000	16.219	0.100
679.100	2.572	0.100
679.200	10.437	0.100
679.300	-10.830	0.100
679.400	10.072	0.100
679.500	10.733	0.100
679.600	7.534	0.100
679.700	20.633	0.100
679.800	-0.487	0.100
679.900	25.206	0.100
680.000	8.298	0.100
680.100	-11.518	0.100
680.200	4.739	0.100
680.300	15.504	0.100
680.400	-3.608	0.100
680.500	2.942	0.100
680.600	4.653	0.100
680.700	5.320	0.100
680.800	-4.069	0.100
680.900	-3.200	0.100
681.000	1.698	0.100
681.100	10.540	0.100
681.200	2.780	0.100
681.300	-0.963	0.100
681.400	12.786	0.100
681.500	1.451	0.100
681.600	4.662	0.100
681.700	4.568	0.100
681.800	-3.125	0.100
681.900	14.659	0.100
682.000	4.771	0.100
682.100	10.631	0.100
682.200	5.956	0.100
682.300	-4.027	0.100
682.400	13.093	0.100
682.500	13.569	0.100
682.600	-0.074	0.100
682.700	7.585	0.100
682.800	5.807	0.100
682.900	7.632	0.100
683.000	0.642	0.100
683.100	8.591	0.100
683.200	3.242	0.100
683.300	-0.893	0.100
683.400	1.427	0.100
683.500	-14.087	0.100
683.600	2.808	0.100
683.700	-1.436	0.100
683.800	8.655	0.100
683.900	3.482	0.100
684.000	-5.023	0.100
684.100	11.403	0.100
684.200	5.868	0.100
684.300	4.134	0.100
684.400	3.719	0.100
684.500	1.988	0.100
684.600	11.789	0.100
684.700	6.800	0.100
684.800	0.559	0.100
684.900	11.696	0.100
685.000	6.407	0.100
685.100	-4.780	0.100
685.200	15.210	0.100
685.300	14.192	0.100
685.400	-0.774	0.100
685.500	-2.553	0.100
685.600	8.366	0.100
685.700	16.847	0.100
685.800	6.655	0.100
685.900	4.585	0.100
686.000	1.162	0.100
686.100	-0.526	0.100
686.200	16.860	0.100
686.300	-5.072	0.100
686.400	-2.330	0.100
686.500	-5.043	0.100
686.600	8.919	0.100
686.700	6.997	0.100
686.800	3.200	0.100
686.900	6.288	0.100
687.000	5.480	0.100
687.100	13.633	0.100
687.200	5.474	0.100
687.300	12.577	0.100
687.400	5.907	0.100
687.500	2.595	0.100
687.600	16.675	0.100
687.700	5.140	0.100
687.800	16.651	0.100
687.900	-0.774	0.100
688.000	-5.525	0.100
688.100	10.264	0.100
688.200	9.180	0.100
688.300	3.546	0.100
688.400	3.583	0.100
688.500	8.201	0.100
688.600	-0.613	0.100
688.700	10.417	0.100
688.800	11.648	0.100
688.900	2.478	0.100
689.000	1.305	0.100
689.100	5.465	0.100
689.200	4.516	0.100
689.300	1.586	0.100
689.400	0.371	0.100
689.500	2.846	0.100
689.600	0.506	0.100
689.700	-2.872	0.100
689.800	8.776	0.100
689.900	11.065	0.100
690.000	-5.618	0.100
690.100	-0.637	0.100
690.200	9.065	0.100
690.300	4.442	0.100
690.400	4.709	0.100
690.500	14.148	0.100
690.600	6.239	0.100
690.700	-9.526	0.100
690.800	-0.543	0.100
690.900	14.967	0.100
691.000	3.004	0.100
691.100	15.070	0.100
691.200	19.136	0.100
691.300	0.838	0.100
691.400	3.186	0.100
691.500	9.264	0.100
691.600	5.663	0.100
691.700	5.824	0.100
691.800	0.473	0.100
691.900	4.996	0.100
692.000	3.884	0.100
692.100	13.524	0.100
692.200	-7.103	0.100
692.300	-3.282	0.100
692.400	-2.501	0.100
692.500	11.296	0.100
692.600	3.410	0.100
692.700	-2.782	0.100
692.800	5.184	0.100
692.900	2.437	0.100
693.000	-19.461	0.100
693.100	-5.180	0.100
693.200	7.788	0.100
693.300	2.012	0.100
693.400	-11.332	0.100
693.500	3.827	0.100
693.600	-5.422	0.100
693.700	-0.765	0.100
693.800	7.531	0.100
693.900	3.732	0.100
694.000	0.810	0.100
694.100	2.830	0.100
694.200	8.647	0.100
694.300	6.507	0.100
694.400	-1.080	0.100
694.500	1.599	0.100
694.600	-8.386	0.100
694.700	5.961	0.100
694.800	5.214	0.100
694.900	1.581	0.100
695.000	2.843	0.100
695.100	2.178	0.100
695.200	-7.980	0.100
695.300	-11.232	0.100
695.400	9.389	0.100
695.500	1.503	0.100
695.600	5.564	0.100
695.700	-9.646	0.100
695.800	3.150	0.100
695.900	1.336	0.100
696.000	-7.563	0.100
696.100	8.437	0.100
696.200	2.537	0.100
696.300	-14.264	0.100
696.400	7.569	0.100
696.500	4.962	0.100
696.600	1.403	0.100
696.700	11.101	0.100
696.800	-4.500	0.100
696.900	-3.410	0.100
697.000	10.589	0.100
697.100	-2.372	0.100
697.200	2.058	0.100
697.300	7.123	0.100
697.400	6.740	0.100
697.500	9.942	0.100
697.600	-2.199	0.100
697.700	4.700	0.100
697.800	3.937	0.100
697.900	-10.314	0.100
698.000	-6.102	0.100
698.100	-12.926	0.100
698.200	2.404	0.100
698.300	-1.599	0.100
698.400	8.741	0.100
698.500	1.443	0.100
698.600	-3.467	0.100
698.700	-10.617	0.100
698.800	-8.801	0.100
698.900	6.211	0.100
699.000	4.517	0.100
699.100	-1.446	0.100
699.200	3.961	0.100
699.300	0.293	0.100
699.400	-17.112	0.100
699.500	-8.507	0.100
699.600	-3.487	0.100
699.700	8.999	0.100
699.800	-5.401	0.100
699.900	18.742	0.100
700.000	-0.941	0.100
700.100	9.603	0.100
700.200	-4.171	0.100
700.300	-24.419	0.100
700.400	9.165	0.100
700.500	4.889	0.100
700.600	3.075	0.100
700.700	7.097	0.100
700.800	-22.797	0.100
700.900	4.043	0.100
701.000	-0.902	0.100
701.100	4.113	0.100
701.200	-5.688	0.100
701.300	2.553	0.100
701.400	0.127	0.100
701.500	-0.659	0.100
701.600	13.885	0.100
701.700	-6.709	0.100
701.800	-4.689	0.100
701.900	14.721	0.100
702.000	-17.726	0.100
702.100	-0.866	0.100
702.200	0.736	0.100
702.300	11.461	0.100
702.400	7.706	0.100
702.500	-6.388	0.100
702.600	-7.859	0.100
702.700	-9.762	0.100
702.800	1.054	0.100
702.900	-0.175	0.100
703.000	6.304	0.100
703.100	-11.585	0.100
703.200	-19.003	0.100
703.300	-6.412	0.100
703.400	7.461	0.100
703.500	-1.738	0.100
703.600	13.846	0.100
703.700	6.027	0.100
703.800	-9.854	0.100
703.900	-9.387	0.100
704.000	-1.404	0.100
704.100	13.151	0.100
704.200	-4.348	0.100
704.300	5.883	0.100
704.400	2.235	0.100
704.500	-9.853	0.100
704.600	-7.990	0.100
704.700	-0.525	0.100
704.800	-7.442	0.100
704.900	-4.274	0.100
705.000	7.858	0.100
705.100	0.324	0.100
705.200	-2.217	0.100
705.300	-1.595	0.100
705.400	-9.582	0.100
705.500	-3.427	0.100
705.600	5.995	0.100
705.700	-1.654	0.100
705.800	2.789	0.100
705.900	-20.033	0.100
706.000	-6.437	0.100
706.100	12.485	0.100
706.200	-2.720	0.100
706.300	-4.943	0.100
706.400	-18.932	0.100
706.500	2.358	0.100
706.600	-4.493	0.100
706.700	-10.335	0.100
706.800	-14.196	0.100
706.900	10.534	0.100
707.000	5.157	0.100
707.100	2.201	0.100
707.200	1.973	0.100
707.300	-9.426	0.100
707.400	6.002	0.100
707.500	-11.294	0.100
707.600	1.685	0.100
707.700	8.366	0.100
707.800	6.220	0.100
707.900	-13.922	0.100
708.000	-6.336	0.100
708.100	13.208	0.100
708.200	8.037	0.100
708.300	-11.880	0.100
708.400	-9.320	0.100
708.500	-9.327	0.100
708.600	4.109	0.100
708.700	4.004	0.100
708.800	-8.749	0.100
708.900	2.317	0.100
709.000	-5.722	0.100
709.100	-5.833	0.100
709.200	0.489	0.100
709.300	-15.928	0.100
709.400	-9.499	0.100
709.500	12.477	0.100
709.600	4.772	0.100
709.700	16.918	0.100
709.800	-24.696	0.100
709.900	7.498	0.100
710.000	-9.839	0.100
710.100	-2.857	0.100
710.200	-0.800	0.100
710.300	-1.850	0.100
710.400	-9.651	0.100
710.500	-3.269	0.100
710.600	-9.241	0.100
710.700	13.429	0.100
710.800	10.953	0.100
710.900	-0.655	0.100
711.000	0.313	0.100
711.100	-17.945	0.100
711.200	-4.096	0.100
711.300	10.176	0.100
711.400	1.723	0.100
711.500	-7.695	0.100
711.600	2.334	0.100
711.700	3.693	0.100
711.800	0.897	0.100
711.900	-1.749	0.100
712.000	17.781	0.100
712.100	0.447	0.100
712.200	-0.292	0.100
712.300	-1.544	0.100
712.400	-0.612	0.100
712.500	5.304	0.100
712.600	2.324	0.100
712.700	0.706	0.100
712.800	-2.260	0.100
712.900	8.489	0.100
713.000	-1.983	0.100
713.100	0.533	0.100
713.200	-16.388	0.100
713.300	9.600	0.100
713.400	3.769	0.100
713.500	1.582	0.100
713.600	-3.102	0.100
713.700	-5.326	0.100
713.800	7.031	0.100
713.900	4.615	0.100
714.000	2.087	0.100
714.100	-11.488	0.100
714.200	-16.884	0.100
714.300	-6.317	0.100
714.400	-17.284	0.100
714.500	11.783	0.100
714.600	1.600	0.100
714.700	-5.487	0.100
714.800	2.916	0.100
714.900	-10.521	0.100
715.000	-11.302	0.100
715.100	7.476	0.100
715.200	-1.997	0.100
715.300	-5.546	0.100
715.400	-0.478	0.100
715.500	1.242	0.100
715.600	0.291	0.100
715.700	-1.429	0.100
715.800	-12.567	0.100
715.900	-15.204	0.100
716.000	15.116	0.100
716.100	-4.047	0.100
716.200	-4.780	0.100
716.300	-0.242	0.100
716.400	-6.716	0.100
716.500	6.480	0.100
716.600	-5.157	0.100
716.700	-15.714	0.100
716.800	14.275	0.100
716.900	4.859	0.100
717.000	6.195	0.100
717.100	-4.652	0.100
717.200	3.740	0.100
717.300	-3.935	0.100
717.400	7.092	0.100
717.500	1.340	0.100
717.600	-9.334	0.100
717.700	-3.905	0.100
717.800	5.878	0.100
717.900	-9.933	0.100
718.000	0.789	0.100
718.100	-0.452	0.100
718.200	-8.241	0.100
718.300	3.982	0.100
718.400	0.808	0.100
718.500	-8.595	0.100
718.600	11.682	0.100
718.700	6.675	0.100
718.800	-0.145	0.100
718.900	3.869	0.100
719.000	-20.017	0.100
719.100	-6.790	0.100
719.200	4.043	0.100
719.300	-7.601	0.100
719.400	-0.099	0.100
719.500	-2.083	0.100
719.600	10.032	0.100
719.700	7.251	0.100
719.800	6.303	0.100
719.900	0.339	0.100
720.000	-1.913	0.100
720.100	0.635	0.100
720.200	-3.815	0.100
720.300	2.433	0.100
720.400	-10.721	0.100
720.500	2.647	0.100
720.600	-1.890	0.100
720.700	-18.762	0.100
720.800	-1.514	0.100
720.900	-3.648	0.100
721.000	5.622	0.100
721.100	5.021	0.100
721.200	1.628	0.100
721.300	-16.250	0.100
721.400	1.914	0.100
721.500	9.538	0.100
721.600	-2.573	0.100
721.700	1.219	0.100
721.800	-3.662	0.100
721.900	0.040	0.100
722.000	7.137	0.100
722.100	-0.423	0.100
722.200	-2.838	0.100
722.300	-5.622	0.100
722.400	-2.759	0.100
722.500	-5.551	0.100
722.600	-9.737	0.100
722.700	4.964	0.100
722.800	-7.684	0.100
722.900	-2.343	0.100
723.000	-7.296	0.100
723.100	15.447	0.100
723.200	-12.225	0.100
723.300	-6.305	0.100
723.400	2.699	0.100
723.500	10.191	0.100
723.600	5.969	0.100
723.700	-2.174	0.100
723.800	3.377	0.100
723.900	-7.618	0.100
724.000	-4.485	0.100
724.100	0.254	0.100
724.200	-8.206	0.100
724.300	11.693	0.100
724.400	14.206	0.100
724.500	-6.184	0.100
724.600	-1.206	0.100
724.700	-0.331	0.100
724.800	-4.561	0.100
724.900	-6.273	0.100
725.000	11.073	0.100
725.100	-8.885	0.100
725.200	5.171	0.100
725.300	2.866	0.100
725.400	-1.966	0.100
725.500	-0.508	0.100
725.600	1.365	0.100
725.700	-6.648	0.100
725.800	-14.820	0.100
725.900	13.023	0.100
726.000	9.993	0.100
726.100	1.105	0.100
726.200	-2.332	0.100
726.300	-13.430	0.100
726.400	-5.362	0.100
726.500	-6.469	0.100
726.600	9.308	0.100
726.700	-2.542	0.100
726.800	4.172	0.100
726.900	2.284	0.100
727.000	-12.326	0.100
727.100	-6.658	0.100
727.200	10.952	0.100
727.300	9.154	0.100
727.400	-4.671	0.100
727.500	-4.969	0.100
727.600	-19.220	0.100
727.700	4.213	0.100
727.800	-1.272	0.100
727.900	-0.470	0.100
728.000	0.894	0.100
728.100	6.782	0.100
728.200	13.722	0.100
728.300	-12.869	0.100
728.400	-4.259	0.100
728.500	-0.297	0.100
728.600	2.842	0.100
728.700	8.586	0.100
728.800	-11.534	0.100
728.900	-2.358	0.100
729.000	1.045	0.100
729.100	5.963	0.100
729.200	-5.910	0.100
729.300	-4.563	0.100
729.400	-5.860	0.100
729.500	1.398	0.100
729.600	2.285	0.100
729.700	-2.594	0.100
729.800	-9.447	0.100
729.900	3.774	0.100
730.000	9.324	0.100
730.100	11.199	0.100
730.200	3.729	0.100
730.300	-6.324	0.100
730.400	-1.467	0.100
730.500	4.190	0.100
730.600	-7.034	0.100
730.700	1.938	0.100
730.800	2.176	0.100
730.900	-2.874	0.100
731.000	1.904	0.100
731.100	-5.743	0.100
731.200	-13.199	0.100
731.300	7.851	0.100
731.400	-8.789	0.100
731.500	9.574	0.100
731.600	7.288	0.100
731.700	11.054	0.100
731.800	-2.181	0.100
731.900	-4.927	0.100
732.000	-0.227	0.100
732.100	-3.843	0.100
732.200	-0.264	0.100
732.300	-6.059	0.100
732.400	-1.573	0.100
732.500	1.197	0.100
732.600	-18.655	0.100
732.700	-3.642	0.100
732.800	3.004	0.100
732.900	3.312	0.100
733.000	11.643	0.100
733.100	12.024	0.100
733.200	4.707	0.100
733.300	-10.661	0.100
733.400	4.269	0.100
733.500	-5.307	0.100
733.600	-2.441	0.100
733.700	4.506	0.100
733.800	-3.899	0.100
733.900	7.607	0.100
734.000	0.944	0.100
734.100	0.964	0.100
734.200	-5.774	0.100
734.300	6.274	0.100
734.400	0.521	0.100
734.500	2.718	0.100
734.600	10.267	0.100
734.700	1.629	0.100
734.800	8.469	0.100
734.900	2.651	0.100
735.000	-10.452	0.100
735.100	9.257	0.100
735.200	9.140	0.100
735.300	-3.374	0.100
735.400	-15.112	0.100
735.500	13.156	0.100
735.600	1.370	0.100
735.700	1.079	0.100
735.800	-1.081	0.100
735.900	-5.079	0.100
736.000	-1.588	0.100
736.100	8.753	0.100
736.200	-1.640	0.100
736.300	-3.577	0.100
736.400	5.477	0.100
736.500	-10.411	0.100
736.600	8.738	0.100
736.700	-9.043	0.100
736.800	-8.739	0.100
736.900	6.783	0.100
737.000	-14.263	0.100
737.100	-6.946	0.100
737.200	7.006	0.100
737.300	8.305	0.100
737.400	-13.868	0.100
737.500	-6.573	0.100
737.600	4.243	0.100
737.700	-6.774	0.100
737.800	-7.675	0.100
737.900	9.836	0.100
738.000	7.059	0.100
738.100	3.410	0.100
738.200	11.233	0.100
738.300	-4.019	0.100
738.400	9.465	0.100
738.500	9.034	0.100
738.600	9.569	0.100
738.700	-5.423	0.100
738.800	-0.691	0.100
738.900	1.262	0.100
739.000	-5.555	0.100
739.100	10.381	0.100
739.200	7.212	0.100
739.300	3.517	0.100
739.400	-2.347	0.100
739.500	-1.862	0.100
739.600	-5.854	0.100
739.700	4.624	0.100
739.800	9.051	0.100
739.900	8.404	0.100
740.000	-7.425	0.100
740.100	4.745	0.100
740.200	-5.439	0.100
740.300	-7.707	0.100
740.400	9.906	0.100
740.500	23.195	0.100
740.600	-4.847	0.100
740.700	1.286	0.100
740.800	-1.766	0.100
740.900	8.629	0.100
741.000	-7.305	0.100
741.100	-3.672	0.100
741.200	5.128	0.100
741.300	-3.876	0.100
741.400	-3.824	0.100
741.500	12.720	0.100
741.600	8.273	0.100
741.700	6.461	0.100
741.800	-1.435	0.100
741.900	-4.246	0.100
742.000	-7.324	0.100
742.100	-7.742	0.100
742.200	-11.035	0.100
742.300	4.578	0.100
742.400	-1.948	0.100
742.500	7.278	0.100
742.600	2.011	0.100
742.700	-3.703	0.100
742.800	-8.247	0.100
742.900	14.812	0.100
743.000	-1.181	0.100
743.100	-1.242	0.100
743.200	2.681	0.100
743.300	-3.016	0.100
743.400	-1.973	0.100
743.500	1.489	0.100
743.600	-5.891	0.100
743.700	-1.260	0.100
743.800	1.648	0.100
743.900	-7.006	0.100
744.000	-1.161	0.100
744.100	17.385	0.100
744.200	14.338	0.100
744.300	3.755	0.100
744.400	0.068	0.100
744.500	5.668	0.100
744.600	11.878	0.100
744.700	1.145	0.100
744.800	2.368	0.100
744.900	-12.611	0.100
745.000	-2.010	0.100
745.100	-2.094	0.100
745.200	2.845	0.100
745.300	13.816	0.100
745.400	-13.067	0.100
745.500	3.445	0.100
745.600	6.125	0.100
745.700	7.593	0.100
745.800	3.547	0.100
745.900	-3.853	0.100
746.000	2.980	0.100
746.100	11.912	0.100
746.200	3.035	0.100
746.300	3.180	0.100
746.400	-8.588	0.100
746.500	-7.957	0.100
746.600	-1.005	0.100
746.700	1.271	0.100
746.800	4.660	0.100
746.900	2.650	0.100
747.000	-3.988	0.100
747.100	11.296	0.100
747.200	-10.220	0.100
747.300	-0.361	0.100
747.400	-2.736	0.100
747.500	-14.049	0.100
747.600	-1.523	0.100
747.700	7.309	0.100
747.800	5.436	0.100
747.900	-7.204	0.100
748.000	3.572	0.100
748.100	5.696	0.100
748.200	-2.427	0.100
748.300	-6.031	0.100
748.400	1.085	0.100
748.500	-4.488	0.100
748.600	-27.775	0.100
748.700	0.075	0.100
748.800	3.620	0.100
748.900	11.949	0.100
749.000	2.148	0.100
749.100	0.498	0.100
749.200	11.015	0.100
749.300	-1.727	0.100
749.400	9.961	0.100
749.500	-0.968	0.100
749.600	4.093	0.100
749.700	-6.196	0.100
749.800	3.305	0.100
749.900	13.032	0.100
750.000	-6.775	0.100
750.100	5.146	0.100
750.200	-2.732	0.100
750.300	-11.953	0.100
750.400	-8.774	0.100
750.500	3.082	0.100
750.600	7.315	0.100
750.700	-0.840	0.100
750.800	8.656	0.100
750.900	-7.517	0.100
751.000	0.973	0.100
751.100	-0.035	0.100
751.200	2.115	0.100
751.300	16.868	0.100
751.400	-2.725	0.100
751.500	-2.159	0.100
751.600	7.570	0.100
751.700	-1.365	0.100
751.800	2.899	0.100
751.900	4.606	0.100
752.000	12.874	0.100
752.100	-22.142	0.100
752.200	0.540	0.100
752.300	2.988	0.100
752.400	-0.115	0.100
752.500	8.960	0.100
752.600	-0.071	0.100
752.700	2.677	0.100
752.800	-5.414	0.100
752.900	-7.343	0.100
753.000	7.704	0.100
753.100	9.146	0.100
753.200	-1.865	0.100
753.300	9.983	0.100
753.400	-12.492	0.100
753.500	3.371	0.100
753.600	8.731	0.100
753.700	-8.718	0.100
753.800	-5.572	0.100
753.900	-18.361	0.100
754.000	11.239	0.100
754.100	-5.586	0.100
754.200	-5.812	0.100
754.300	1.070	0.100
754.400	2.457	0.100
754.500	20.601	0.100
754.600	-2.174	0.100
754.700	1.173	0.100
754.800	-11.837	0.100
754.900	-4.914	0.100
755.000	4.132	0.100
755.100	1.474	0.100
755.200	3.503	0.100
755.300	7.236	0.100
755.400	1.416	0.100
755.500	-5.476	0.100
755.600	0.802	0.100
755.700	-4.116	0.100
755.800	-2.474	0.100
755.900	2.588	0.100
756.000	2.296	0.100
756.100	2.230	0.100
756.200	5.789	0.100
756.300	-6.551	0.100
756.400	-8.820	0.100
756.500	18.634	0.100
756.600	2.595	0.100
756.700	-8.855	0.100
756.800	-1.076	0.100
756.900	6.549	0.100
757.000	8.427	0.100
757.100	2.694	0.100
757.200	-1.482	0.100
757.300	9.142	0.100
757.400	-2.789	0.100
757.500	-1.044	0.100
757.600	-3.494	0.100
757.700	10.164	0.100
757.800	0.687	0.100
757.900	-3.094	0.100
758.000	-1.501	0.100
758.100	-8.842	0.100
758.200	2.720	0.100
758.300	-8.623	0.100
758.400	6.700	0.100
758.500	-8.792	0.100
758.600	16.279	0.100
758.700	1.824	0.100
758.800	11.153	0.100
758.900	-11.027	0.100
759.000	-9.254	0.100
759.100	22.813	0.100
759.200	-0.243	0.100
759.300	-4.386	0.100
759.400	0.102	0.100
759.500	0.999	0.100
759.600	6.289	0.100
759.700	-12.019	0.100
759.800	19.934	0.100
759.900	6.773	0.100
760.000	-3.243	0.100
760.100	1.875	0.100
760.200	-0.687	0.100
760.300	-13.992	0.100
760.400	7.616	0.100
760.500	-3.312	0.100
760.600	8.750	0.100
760.700	-4.516	0.100
760.800	9.195	0.100
760.900	8.120	0.100
761.000	6.369	0.100
761.100	-6.595	0.100
761.200	-1.300	0.100
761.300	26.029	0.100
761.400	8.628	0.100
761.500	0.529	0.100
761.600	9.165	0.100
761.700	-2.638	0.100
761.800	-7.652	0.100
761.900	8.387	0.100
762.000	-3.125	0.100
762.100	9.002	0.100
762.200	-0.027	0.100
762.300	-4.703	0.100
762.400	2.688	0.100
762.500	2.467	0.100
762.600	14.060	0.100
762.700	7.311	0.100
762.800	-3.944	0.100
762.900	-2.300	0.100
763.000	-2.626	0.100
763.100	5.569	0.100
763.200	-2.862	0.100
763.300	2.692	0.100
763.400	1.441	0.100
763.500	-3.420	0.100
763.600	0.715	0.100
763.700	0.913	0.100
763.800	8.257	0.100
763.900	9.665	0.100
764.000	-8.219	0.100
764.100	-1.463	0.100
764.200	12.407	0.100
764.300	3.833	0.100
764.400	-3.442	0.100
764.500	14.261	0.100
764.600	-2.680	0.100
764.700	7.861	0.100
764.800	1.244	0.100
764.900	-4.929	0.100
765.000	15.357	0.100
765.100	8.424	0.100
765.200	-0.386	0.100
765.300	8.931	0.100
765.400	7.477	0.100
765.500	6.831	0.100
765.600	-2.760	0.100
765.700	-13.442	0.100
765.800	13.915	0.100
765.900	-0.295	0.100
766.000	-3.660	0.100
766.100	-10.413	0.100
766.200	-3.827	0.100
766.300	3.979	0.100
766.400	-10.556	0.100
766.500	-4.741	0.100
766.600	3.876	0.100
766.700	-9.374	0.100
766.800	-4.532	0.100
766.900	17.002	0.100
767.000	-4.982	0.100
767.100	7.226	0.100
767.200	-0.282	0.100
767.300	3.857	0.100
767.400	-7.879	0.100
767.500	-9.730	0.100
767.600	12.039	0.100
767.700	7.164	0.100
767.800	7.758	0.100
767.900	-6.378	0.100
768.000	6.392	0.100
768.100	6.347	0.100
768.200	8.376	0.100
768.300	2.027	0.100
768.400	0.137	0.100
768.500	1.053	0.100
768.600	11.252	0.100
768.700	-20.893	0.100
768.800	-10.793	0.100
768.900	-0.315	0.100
769.000	6.841	0.100
769.100	-3.694	0.100
769.200	-11.629	0.100
769.300	-4.238	0.100
769.400	0.814	0.100
769.500	1.611	0.100
769.600	12.030	0.100
769.700	-11.826	0.100
769.800	-10.512	0.100
769.900	7.946	0.100
770.000	11.140	0.100
770.100	-9.667	0.100
770.200	5.501	0.100
770.300	-6.189	0.100
770.400	6.729	0.100
770.500	3.406	0.100
770.600	-0.677	0.100
770.700	3.293	0.100
770.800	5.935	0.100
770.900	9.010	0.100
771.000	0.152	0.100
771.100	15.079	0.100
771.200	14.002	0.100
771.300	3.713	0.100
771.400	-1.303	0.100
771.500	-1.018	0.100
771.600	-7.045	0.100
771.700	0.417	0.100
771.800	16.784	0.100
771.900	-10.598	0.100
772.000	-14.192	0.100
772.100	0.559	0.100
772.200	-8.716	0.100
772.300	-6.931	0.100
772.400	14.252	0.100
772.500	2.186	0.100
772.600	-7.151	0.100
772.700	-4.751	0.100
772.800	2.316	0.100
772.900	1.059	0.100
773.000	-6.082	0.100
773.100	-6.618	0.100
773.200	9.196	0.100
773.300	15.462	0.100
773.400	4.680	0.100
773.500	9.662	0.100
773.600	-7.608	0.100
773.700	-12.707	0.100
773.800	21.130	0.100
773.900	14.789	0.100
774.000	-12.852	0.100
774.100	1.541	0.100
774.200	1.504	0.100
774.300	-0.481	0.100
774.400	-8.201	0.100
774.500	-6.276	0.100
774.600	3.407	0.100
774.700	17.501	0.100
774.800	0.717	0.100
774.900	-10.757	0.100
775.000	-8.896	0.100
775.100	1.287	0.100
775.200	0.437	0.100
775.300	2.192	0.100
775.400	11.532	0.100
775.500	-10.199	0.100
775.600	9.454	0.100
775.700	-14.001	0.100
775.800	6.596	0.100
775.900	1.562	0.100
776.000	-5.982	0.100
776.100	-1.046	0.100
776.200	8.183	0.100
776.300	2.814	0.100
776.400	-8.423	0.100
776.500	-1.456	0.100
776.600	-14.591	0.100
776.700	4.567	0.100
776.800	5.364	0.100
776.900	-0.512	0.100
777.000	4.850	0.100
777.100	5.541	0.100
777.200	-7.857	0.100
777.300	19.071	0.100
777.400	-6.667	0.100
777.500	-13.969	0.100
777.600	-1.920	0.100
777.700	-11.447	0.100
777.800	-11.834	0.100
777.900	7.728	0.100
778.000	-1.980	0.100
778.100	21.258	0.100
778.200	0.314	0.100
778.300	16.610	0.100
778.400	3.444	0.100
778.500	-9.302	0.100
778.600	-1.234	0.100
778.700	9.317	0.100
778.800	-7.848	0.100
778.900	5.358	0.100
779.000	7.236	0.100
779.100	3.445	0.100
779.200	-21.729	0.100
779.300	8.547	0.100
779.400	5.163	0.100
779.500	3.305	0.100
779.600	-3.770	0.100
779.700	-0.098	0.100
779.800	0.066	0.100
779.900	12.891	0.100
780.000	0.482	0.100
780.100	3.060	0.100
780.200	10.377	0.100
780.300	-3.559	0.100
780.400	-3.243	0.100
780.500	-0.423	0.100
780.600	20.320	0.100
780.700	-11.056	0.100
780.800	-8.260	0.100
780.900	-2.269	0.100
781.000	7.159	0.100
781.100	1.082	0.100
781.200	17.383	0.100
781.300	-1.007	0.100
781.400	13.880	0.100
781.500	4.387	0.100
781.600	9.032	0.100
781.700	0.750	0.100
781.800	-6.061	0.100
781.900	-5.517	0.100
782.000	-3.594	0.100
782.100	-0.299	0.100
782.200	25.007	0.100
782.300	9.367	0.100
782.400	4.507	0.100
782.500	-9.815	0.100
782.600	7.913	0.100
782.700	-15.887	0.100
782.800	-1.179	0.100
782.900	2.482	0.100
783.000	8.548	0.100
783.100	18.691	0.100
783.200	15.717	0.100
783.300	14.382	0.100
783.400	-5.688	0.100
783.500	16.668	0.100
783.600	4.766	0.100
783.700	7.674	0.100
783.800	-1.801	0.100
783.900	9.904	0.100
784.000	4.564	0.100
784.100	5.673	0.100
784.200	5.914	0.100
784.300	8.432	0.100
784.400	-6.007	0.100
784.500	19.446	0.100
784.600	8.148	0.100
784.700	17.580	0.100
784.800	13.631	0.100
784.900	1.983	0.100
785.000	3.752	0.100
785.100	10.605	0.100
785.200	-3.028	0.100
785.300	3.049	0.100
785.400	-4.358	0.100
785.500	8.983	0.100
785.600	3.133	0.100
785.700	22.430	0.100
785.800	19.698	0.100
785.900	13.208	0.100
786.000	1.415	0.100
786.100	14.317	0.100
786.200	4.432	0.100
786.300	9.714	0.100
786.400	6.886	0.100
786.500	4.492	0.100
786.600	12.572	0.100
786.700	-6.544	0.100
786.800	18.399	0.100
786.900	6.830	0.100
787.000	4.269	0.100
787.100	-6.241	0.100
787.200	16.498	0.100
787.300	2.699	0.100
787.400	22.038	0.100
787.500	10.427	0.100
787.600	8.795	0.100
787.700	9.138	0.100
787.800	6.985	0.100
787.900	13.961	0.100
788.000	-1.044	0.100
788.100	-3.547	0.100
788.200	-0.383	0.100
788.300	12.684	0.100
788.400	7.185	0.100
788.500	5.843	0.100
788.600	3.907	0.100
788.700	12.931	0.100
788.800	17.987	0.100
788.900	15.701	0.100
789.000	7.400	0.100
789.100	1.104	0.100
789.200	-5.401	0.100
789.300	13.268	0.100
789.400	11.065	0.100
789.500	-5.423	0.100
789.600	16.032	0.100
789.700	16.699	0.100
789.800	6.163	0.100
789.900	16.665	0.100
790.000	17.898	0.100
790.100	18.582	0.100
790.200	1.293	0.100
790.300	18.800	0.100
790.400	-1.969	0.100
790.500	20.413	0.100
790.600	8.891	0.100
790.700	9.985	0.100
790.800	4.454	0.100
790.900	12.357	0.100
791.000	6.456	0.100
791.100	25.856	0.100
791.200	20.793	0.100
791.300	10.028	0.100
791.400	5.376	0.100
791.500	10.840	0.100
791.600	11.170	0.100
791.700	18.030	0.100
791.800	6.285	0.100
791.900	18.289	0.100
792.000	3.807	0.100
792.100	7.243	0.100
792.200	11.624	0.100
792.300	10.318	0.100
792.400	21.738	0.100
792.500	8.152	0.100
792.600	16.033	0.100
792.700	12.063	0.100
792.800	7.820	0.100
792.900	10.785	0.100
793.000	28.591	0.100
793.100	12.438	0.100
793.200	22.534	0.100
793.300	-0.518	0.100
793.400	3.328	0.100
793.500	-3.981	0.100
793.600	23.720	0.100
793.700	5.144	0.100
793.800	18.633	0.100
793.900	19.400	0.100
794.000	5.810	0.100
794.100	5.281	0.100
794.200	15.919	0.100
794.300	12.703	0.100
794.400	18.606	0.100
794.500	11.011	0.100
794.600	20.356	0.100
794.700	7.979	0.100
794.800	2.793	0.100
794.900	15.326	0.100
795.000	10.246	0.100
795.100	12.340	0.100
795.200	25.809	0.100
795.300	10.946	0.100
795.400	16.575	0.100
795.500	-3.659	0.100
795.600	14.489	0.100
795.700	19.306	0.100
795.800	8.353	0.100
795.900	8.665	0.100
796.000	7.102	0.100
796.100	13.751	0.100
796.200	15.193	0.100
796.300	16.575	0.100
796.400	31.599	0.100
796.500	18.911	0.100
796.600	18.386	0.100
796.700	13.075	0.100
796.800	16.248	0.100
796.900	9.495	0.100
797.000	28.061	0.100
797.100	12.679	0.100
797.200	10.832	0.100
797.300	6.284	0.100
797.400	5.282	0.100
797.500	18.793	0.100
797.600	16.688	0.100
797.700	0.572	0.100
797.800	5.259	0.100
797.900	20.633	0.100
798.000	29.843	0.100
798.100	0.006	0.100
798.200	15.861	0.100
798.300	18.456	0.100
798.400	-1.339	0.100
798.500	26.040	0.100
798.600	8.315	0.100
798.700	10.820	0.100
798.800	15.830	0.100
798.900	23.662	0.100
799.000	5.474	0.100
799.100	11.575	0.100
799.200	11.437	0.100
799.300	27.596	0.100
799.400	10.416	0.100
799.500	0.193	0.100
799.600	5.421	0.100
799.700	19.303	0.100
799.800	13.350	0.100
799.900	22.234	0.100
800.000	21.874	0.100
