time /s	I /nA	E /V
0.100	-22.111	0.100
0.200	-7.617	0.100
0.300	-7.775	0.100
0.400	-8.878	0.100
0.500	-10.998	0.100
0.600	-9.362	0.100
0.700	-13.931	0.100
0.800	-12.496	0.100
0.900	-12.185	0.100
1.000	-22.677	0.100
1.100	-24.238	0.100
1.200	-1.743	0.100
1.300	-7.596	0.100
1.400	-2.652	0.100
1.500	-17.278	0.100
1.600	-10.474	0.100
1.700	-14.781	0.100
1.800	-8.882	0.100
1.900	-20.148	0.100
2.000	5.531	0.100
2.100	-1.327	0.100
2.200	-24.405	0.100
2.300	-14.411	0.100
2.400	-11.879	0.100
2.500	-6.903	0.100
2.600	-13.732	0.100
2.700	-18.921	0.100
2.800	-12.642	0.100
2.900	-11.849	0.100
3.000	-16.648	0.100
3.100	-8.022	0.100
3.200	-15.749	0.100
3.300	-22.064	0.100
3.400	-0.753	0.100
3.500	-19.253	0.100
3.600	-7.206	0.100
3.700	-12.440	0.100
3.800	-13.739	0.100
3.900	-8.765	0.100
4.000	-9.497	0.100
4.100	-16.862	0.100
4.200	-5.079	0.100
4.300	-3.786	0.100
4.400	-15.005	0.100
4.500	-13.983	0.100
4.600	-14.902	0.100
4.700	-27.590	0.100
4.800	-1.889	0.100
4.900	-20.001	0.100
5.000	-11.042	0.100
5.100	-3.088	0.100
5.200	-6.113	0.100
5.300	-15.344	0.100
5.400	-11.227	0.100
5.500	-36.324	0.100
5.600	-9.081	0.100
5.700	-5.470	0.100
5.800	-29.840	0.100
5.900	-12.477	0.100
6.000	-17.362	0.100
6.100	-9.253	0.100
6.200	-14.270	0.100
6.300	-10.690	0.100
6.400	-16.482	0.100
6.500	-15.992	0.100
6.600	-16.927	0.100
6.700	-16.019	0.100
6.800	-11.347	0.100
6.900	-9.611	0.100
7.000	-16.956	0.100
7.100	-20.124	0.100
7.200	-17.806	0.100
7.300	-16.640	0.100
7.400	-29.431	0.100
7.500	-12.605	0.100
7.600	-15.581	0.100
7.700	-32.787	0.100
7.800	-10.565	0.100
7.900	-7.352	0.100
8.000	-10.326	0.100
8.100	-16.383	0.100
8.200	-12.077	0.100
8.300	-19.340	0.100
8.400	-22.793	0.100
8.500	-25.477	0.100
8.600	-4.390	0.100
8.700	-5.780	0.100
8.800	-24.577	0.100
8.900	-15.875	0.100
9.000	-24.808	0.100
9.100	-2.219	0.100
9.200	-13.615	0.100
9.300	-19.571	0.100
9.400	-16.488	0.100
9.500	-5.242	0.100
9.600	-16.693	0.100
9.700	-13.151	0.100
9.800	-18.582	0.100
9.900	-6.924	0.100
10.000	-23.964	0.100
10.100	-7.132	0.100
10.200	-16.398	0.100
10.300	-17.949	0.100
10.400	-31.005	0.100
10.500	-20.887	0.100
10.600	-15.195	0.100
10.700	-21.923	0.100
10.800	-17.354	0.100
10.900	-11.342	0.100
11.000	-11.330	0.100
11.100	-27.394	0.100
11.200	-14.541	0.100
11.300	-18.238	0.100
11.400	-21.037	0.100
11.500	-10.062	0.100
11.600	-12.556	0.100
11.700	-7.748	0.100
11.800	-9.030	0.100
11.900	-1.786	0.100
12.000	-10.336	0.100
12.100	-15.385	0.100
12.200	-19.036	0.100
12.300	-27.265	0.100
12.400	-23.770	0.100
12.500	-15.398	0.100
12.600	-14.843	0.100
12.700	-7.913	0.100
12.800	-2.749	0.100
12.900	-8.407	0.100
13.000	-4.225	0.100
13.100	-10.511	0.100
13.200	-27.029	0.100
13.300	-7.925	0.100
13.400	-16.216	0.100
13.500	-10.156	0.100
13.600	-14.335	0.100
13.700	-11.917	0.100
13.800	-18.386	0.100
13.900	-22.254	0.100
14.000	-8.911	0.100
14.100	1.182	0.100
14.200	-25.922	0.100
14.300	-21.981	0.100
14.400	-21.259	0.100
14.500	5.052	0.100
14.600	-13.432	0.100
14.700	-23.093	0.100
14.800	-23.934	0.100
14.900	-22.155	0.100
15.000	-7.758	0.100
15.100	-11.446	0.100
15.200	-12.528	0.100
15.300	-23.021	0.100
15.400	-24.477	0.100
15.500	-21.982	0.100
15.600	4.563	0.100
15.700	-19.442	0.100
15.800	-29.296	0.100
15.900	-18.690	0.100
16.000	-10.510	0.100
16.100	-20.640	0.100
16.200	6.507	0.100
16.300	-19.464	0.100
16.400	-30.296	0.100
16.500	-16.410	0.100
16.600	-21.755	0.100
16.700	-14.277	0.100
16.800	-27.337	0.100
16.900	-13.522	0.100
17.000	-20.997	0.100
17.100	-12.942	0.100
17.200	5.338	0.100
17.300	-16.058	0.100
17.400	-21.079	0.100
17.500	-13.796	0.100
17.600	-9.215	0.100
17.700	-12.210	0.100
17.800	-19.724	0.100
17.900	-28.061	0.100
18.000	1.283	0.100
18.100	-7.218	0.100
18.200	-14.781	0.100
18.300	-18.203	0.100
18.400	-23.726	0.100
18.500	-16.028	0.100
18.600	-11.360	0.100
18.700	-13.519	0.100
18.800	-11.248	0.100
18.900	-18.956	0.100
19.000	-26.220	0.100
19.100	-23.691	0.100
19.200	-3.442	0.100
19.300	-2.448	0.100
19.400	-15.402	0.100
19.500	-17.958	0.100
19.600	-22.313	0.100
19.700	-17.917	0.100
19.800	-19.815	0.100
19.900	-20.867	0.100
20.000	-24.304	0.100
20.100	-11.999	0.100
20.200	-11.045	0.100
20.300	-20.637	0.100
20.400	-11.226	0.100
20.500	-16.107	0.100
20.600	-15.514	0.100
20.700	-7.543	0.100
20.800	-13.154	0.100
20.900	-25.979	0.100
21.000	-14.678	0.100
21.100	-18.444	0.100
21.200	-22.115	0.100
21.300	-15.198	0.100
21.400	-27.120	0.100
21.500	-24.636	0.100
21.600	-7.582	0.100
21.700	-34.705	0.100
21.800	-11.573	0.100
21.900	-13.070	0.100
22.000	-13.657	0.100
22.100	-11.988	0.100
22.200	0.119	0.100
22.300	-27.788	0.100
22.400	-12.036	0.100
22.500	-3.496	0.100
22.600	-13.555	0.100
22.700	-24.878	0.100
22.800	-15.587	0.100
22.900	-26.104	0.100
23.000	-6.534	0.100
23.100	-15.512	0.100
23.200	-16.428	0.100
23.300	-19.858	0.100
23.400	-24.821	0.100
23.500	-25.139	0.100
23.600	-11.922	0.100
23.700	-25.477	0.100
23.800	-25.837	0.100
23.900	-14.812	0.100
24.000	-8.969	0.100
24.100	-36.043	0.100
24.200	-20.021	0.100
24.300	-1.922	0.100
24.400	0.995	0.100
24.500	-23.824	0.100
24.600	-17.613	0.100
24.700	-25.035	0.100
24.800	-16.445	0.100
24.900	-16.043	0.100
25.000	-22.594	0.100
25.100	-14.418	0.100
25.200	-18.450	0.100
25.300	-10.406	0.100
25.400	-17.575	0.100
25.500	-21.003	0.100
25.600	-18.608	0.100
25.700	-10.854	0.100
25.800	-23.500	0.100
25.900	-17.468	0.100
26.000	-22.463	0.100
26.100	-24.690	0.100
26.200	-17.482	0.100
26.300	-17.715	0.100
26.400	-7.942	0.100
26.500	-10.492	0.100
26.600	-21.800	0.100
26.700	-11.256	0.100
26.800	-28.376	0.100
26.900	-11.673	0.100
27.000	-30.648	0.100
27.100	-1.679	0.100
27.200	-13.714	0.100
27.300	-15.456	0.100
27.400	-17.584	0.100
27.500	-22.337	0.100
27.600	-15.968	0.100
27.700	-11.876	0.100
27.800	-16.821	0.100
27.900	-26.324	0.100
28.000	-11.691	0.100
28.100	-34.894	0.100
28.200	-18.145	0.100
28.300	-12.731	0.100
28.400	-6.918	0.100
28.500	-13.199	0.100
28.600	-12.772	0.100
28.700	-9.680	0.100
28.800	-19.717	0.100
28.900	-12.701	0.100
29.000	-18.617	0.100
29.100	-24.775	0.100
29.200	-7.607	0.100
29.300	-29.077	0.100
29.400	-16.652	0.100
29.500	-27.179	0.100
29.600	-14.556	0.100
29.700	-9.555	0.100
29.800	-11.515	0.100
29.900	-32.320	0.100
30.000	-15.177	0.100
30.100	-17.051	0.100
30.200	-0.779	0.100
30.300	-26.224	0.100
30.400	-7.044	0.100
30.500	-11.519	0.100
30.600	-19.318	0.100
30.700	-3.616	0.100
30.800	-16.533	0.100
30.900	-2.018	0.100
31.000	-2.514	0.100
31.100	-3.303	0.100
31.200	-7.764	0.100
31.300	-0.061	0.100
31.400	1.196	0.100
31.500	-7.108	0.100
31.600	-20.663	0.100
31.700	3.916	0.100
31.800	5.815	0.100
31.900	-1.704	0.100
32.000	-9.346	0.100
32.100	-4.241	0.100
32.200	-0.953	0.100
32.300	-2.311	0.100
32.400	-6.465	0.100
32.500	5.257	0.100
32.600	-1.132	0.100
32.700	-1.792	0.100
32.800	8.333	0.100
32.900	-5.059	0.100
33.000	3.565	0.100
33.100	-2.066	0.100
33.200	-14.669	0.100
33.300	2.796	0.100
33.400	3.839	0.100
33.500	-12.632	0.100
33.600	1.464	0.100
33.700	3.778	0.100
33.800	-3.782	0.100
33.900	-4.166	0.100
34.000	0.615	0.100
34.100	-2.319	0.100
34.200	3.366	0.100
34.300	1.082	0.100
34.400	-1.158	0.100
34.500	1.504	0.100
34.600	4.293	0.100
34.700	-9.990	0.100
34.800	7.558	0.100
34.900	3.290	0.100
35.000	10.057	0.100
35.100	-12.004	0.100
35.200	-0.333	0.100
35.300	4.640	0.100
35.400	2.361	0.100
35.500	12.536	0.100
35.600	8.768	0.100
35.700	0.041	0.100
35.800	3.140	0.100
35.900	7.937	0.100
36.000	12.891	0.100
36.100	3.735	0.100
36.200	6.992	0.100
36.300	5.171	0.100
36.400	0.282	0.100
36.500	-9.349	0.100
36.600	6.774	0.100
36.700	-6.654	0.100
36.800	12.061	0.100
36.900	10.431	0.100
37.000	7.025	0.100
37.100	0.101	0.100
37.200	8.847	0.100
37.300	13.837	0.100
37.400	14.927	0.100
37.500	10.316	0.100
37.600	-2.439	0.100
37.700	4.782	0.100
37.800	9.643	0.100
37.900	8.176	0.100
38.000	2.845	0.100
38.100	26.137	0.100
38.200	21.290	0.100
38.300	11.876	0.100
38.400	22.412	0.100
38.500	12.281	0.100
38.600	16.125	0.100
38.700	4.255	0.100
38.800	-3.811	0.100
38.900	13.275	0.100
39.000	20.613	0.100
39.100	7.223	0.100
39.200	22.871	0.100
39.300	12.723	0.100
39.400	-4.023	0.100
39.500	4.221	0.100
39.600	13.667	0.100
39.700	-6.509	0.100
39.800	9.524	0.100
39.900	10.920	0.100
40.000	16.199	0.100
40.100	6.655	0.100
40.200	1.215	0.100
40.300	11.941	0.100
40.400	-0.505	0.100
40.500	-2.145	0.100
40.600	18.277	0.100
40.700	16.540	0.100
40.800	10.400	0.100
40.900	7.418	0.100
41.000	2.805	0.100
41.100	7.227	0.100
41.200	6.076	0.100
41.300	26.446	0.100
41.400	-1.060	0.100
41.500	10.387	0.100
41.600	25.516	0.100
41.700	11.547	0.100
41.800	13.368	0.100
41.900	-8.268	0.100
42.000	9.253	0.100
42.100	9.250	0.100
42.200	12.059	0.100
42.300	23.109	0.100
42.400	13.126	0.100
42.500	7.032	0.100
42.600	17.427	0.100
42.700	21.929	0.100
42.800	19.959	0.100
42.900	4.578	0.100
43.000	21.085	0.100
43.100	20.395	0.100
43.200	18.357	0.100
43.300	11.621	0.100
43.400	15.339	0.100
43.500	4.717	0.100
43.600	14.349	0.100
43.700	12.447	0.100
43.800	12.549	0.100
43.900	19.700	0.100
44.000	18.192	0.100
44.100	20.395	0.100
44.200	6.639	0.100
44.300	22.707	0.100
44.400	18.342	0.100
44.500	9.906	0.100
44.600	17.959	0.100
44.700	0.327	0.100
44.800	26.272	0.100
44.900	12.736	0.100
45.000	11.404	0.100
45.100	11.745	0.099
45.200	26.546	0.099
45.300	15.760	0.099
45.400	23.029	0.099
45.500	19.821	0.099
45.600	9.071	0.099
45.700	3.690	0.099
45.800	-2.397	0.099
45.900	17.229	0.099
46.000	7.280	0.099
46.100	23.853	0.099
46.200	10.458	0.099
46.300	18.153	0.099
46.400	11.664	0.099
46.500	8.291	0.099
46.600	18.718	0.099
46.700	6.673	0.099
46.800	11.459	0.099
46.900	22.818	0.099
47.000	17.766	0.099
47.100	17.607	0.099
47.200	6.516	0.099
47.300	21.236	0.099
47.400	26.769	0.099
47.500	7.053	0.099
47.600	14.460	0.099
47.700	20.497	0.099
47.800	20.803	0.099
47.900	2.204	0.099
48.000	24.070	0.099
48.100	18.698	0.099
48.200	11.627	0.099
48.300	16.138	0.099
48.400	16.113	0.099
48.500	21.540	0.099
48.600	15.707	0.099
48.700	-0.463	0.099
48.800	13.777	0.099
48.900	20.423	0.099
49.000	8.522	0.099
49.100	19.987	0.099
49.200	14.165	0.099
49.300	19.660	0.099
49.400	6.152	0.099
49.500	21.373	0.099
49.600	21.853	0.099
49.700	-0.299	0.099
49.800	17.294	0.099
49.900	16.085	0.099
50.000	5.036	0.099
50.100	16.257	0.099
50.200	24.151	0.099
50.300	4.845	0.099
50.400	27.859	0.099
50.500	16.269	0.099
50.600	31.496	0.099
50.700	-11.812	0.099
50.800	21.781	0.099
50.900	25.422	0.099
51.000	17.753	0.099
51.100	28.280	0.099
51.200	13.157	0.099
51.300	16.182	0.099
51.400	18.062	0.099
51.500	14.759	0.099
51.600	22.703	0.099
51.700	5.078	0.099
51.800	26.714	0.099
51.900	4.795	0.099
52.000	25.301	0.099
52.100	14.913	0.099
52.200	9.454	0.099
52.300	5.425	0.099
52.400	15.988	0.099
52.500	17.316	0.099
52.600	19.010	0.099
52.700	2.676	0.099
52.800	14.311	0.099
52.900	28.100	0.099
53.000	23.705	0.099
53.100	23.138	0.099
53.200	17.106	0.099
53.300	8.852	0.099
53.400	16.308	0.099
53.500	28.301	0.099
53.600	10.738	0.099
53.700	22.520	0.099
53.800	17.023	0.099
53.900	15.573	0.099
54.000	10.593	0.099
54.100	22.421	0.099
54.200	18.268	0.099
54.300	28.038	0.099
54.400	19.955	0.099
54.500	18.264	0.099
54.600	-1.192	0.099
54.700	24.611	0.099
54.800	16.565	0.099
54.900	19.373	0.099
55.000	14.404	0.099
55.100	15.208	0.099
55.200	26.972	0.099
55.300	19.738	0.099
55.400	25.852	0.099
55.500	21.348	0.099
55.600	7.892	0.099
55.700	17.778	0.099
55.800	7.556	0.099
55.900	10.256	0.099
56.000	31.390	0.099
56.100	5.721	0.099
56.200	15.928	0.099
56.300	-5.530	0.099
56.400	22.238	0.099
56.500	20.405	0.099
56.600	15.948	0.099
56.700	24.138	0.099
56.800	28.639	0.099
56.900	14.067	0.099
57.000	13.360	0.099
57.100	16.138	0.099
57.200	24.193	0.099
57.300	22.537	0.099
57.400	4.645	0.099
57.500	7.951	0.099
57.600	20.678	0.099
57.700	9.319	0.099
57.800	0.019	0.099
57.900	16.969	0.099
58.000	20.945	0.099
58.100	10.876	0.099
58.200	14.962	0.099
58.300	18.092	0.099
58.400	27.478	0.099
58.500	11.879	0.099
58.600	10.270	0.099
58.700	27.544	0.099
58.800	15.209	0.099
58.900	22.240	0.099
59.000	6.511	0.099
59.100	11.490	0.099
59.200	19.751	0.099
59.300	18.814	0.099
59.400	9.846	0.099
59.500	23.160	0.099
59.600	15.332	0.099
59.700	7.823	0.099
59.800	24.552	0.099
59.900	8.707	0.099
60.000	7.426	0.099
60.100	7.562	0.099
60.200	32.803	0.099
60.300	7.845	0.099
60.400	6.839	0.099
60.500	16.521	0.099
60.600	11.007	0.099
60.700	-3.583	0.099
60.800	21.026	0.099
60.900	23.764	0.099
61.000	24.395	0.099
61.100	4.546	0.099
61.200	20.214	0.099
61.300	15.263	0.099
61.400	23.501	0.099
61.500	20.667	0.099
61.600	27.024	0.099
61.700	19.331	0.099
61.800	13.918	0.099
61.900	16.325	0.099
62.000	15.068	0.099
62.100	24.825	0.099
62.200	18.104	0.100
62.300	33.754	0.100
62.400	9.666	0.100
62.500	4.536	0.100
62.600	9.551	0.100
62.700	27.049	0.100
62.800	13.484	0.100
62.900	22.423	0.100
63.000	-1.750	0.100
63.100	13.136	0.100
63.200	17.226	0.100
63.300	15.870	0.100
63.400	13.146	0.100
63.500	29.980	0.100
63.600	18.478	0.100
63.700	9.111	0.100
63.800	16.167	0.100
63.900	17.519	0.100
64.000	19.527	0.100
64.100	21.565	0.100
64.200	12.668	0.100
64.300	18.056	0.100
64.400	10.863	0.100
64.500	32.516	0.100
64.600	9.347	0.100
64.700	12.805	0.100
64.800	19.285	0.100
64.900	13.913	0.100
65.000	11.854	0.100
65.100	17.203	0.100
65.200	14.371	0.100
65.300	0.665	0.100
65.400	22.958	0.100
65.500	9.740	0.100
65.600	14.491	0.100
65.700	14.028	0.100
65.800	14.898	0.100
65.900	13.101	0.100
66.000	21.788	0.100
66.100	18.534	0.100
66.200	16.897	0.100
66.300	18.469	0.100
66.400	7.137	0.100
66.500	21.915	0.100
66.600	17.832	0.100
66.700	31.822	0.100
66.800	19.755	0.100
66.900	8.636	0.100
67.000	13.478	0.100
67.100	6.515	0.100
67.200	27.045	0.100
67.300	16.332	0.100
67.400	15.743	0.100
67.500	8.127	0.100
67.600	21.660	0.100
67.700	15.844	0.100
67.800	25.232	0.100
67.900	13.205	0.100
68.000	19.142	0.100
68.100	20.647	0.100
68.200	13.728	0.100
68.300	11.596	0.100
68.400	28.184	0.100
68.500	15.600	0.100
68.600	1.015	0.100
68.700	28.226	0.100
68.800	11.613	0.100
68.900	13.435	0.100
69.000	18.641	0.100
69.100	20.974	0.100
69.200	16.621	0.100
69.300	26.216	0.100
69.400	6.572	0.100
69.500	22.461	0.100
69.600	-3.830	0.100
69.700	23.850	0.100
69.800	19.053	0.100
69.900	31.650	0.100
70.000	17.319	0.100
70.100	9.525	0.100
70.200	9.037	0.100
70.300	27.984	0.100
70.400	22.244	0.100
70.500	7.688	0.100
70.600	6.706	0.100
70.700	29.527	0.100
70.800	9.082	0.100
70.900	21.491	0.100
71.000	25.142	0.100
71.100	19.262	0.100
71.200	10.646	0.100
71.300	18.452	0.100
71.400	13.419	0.100
71.500	-4.131	0.100
71.600	8.804	0.100
71.700	22.679	0.100
71.800	16.802	0.100
71.900	17.441	0.100
72.000	11.034	0.100
72.100	17.977	0.100
72.200	15.749	0.100
72.300	15.788	0.100
72.400	11.013	0.100
72.500	11.956	0.100
72.600	7.453	0.100
72.700	17.798	0.100
72.800	17.028	0.100
72.900	20.176	0.100
73.000	16.836	0.100
73.100	12.271	0.100
73.200	5.676	0.100
73.300	8.964	0.100
73.400	22.384	0.100
73.500	16.643	0.100
73.600	17.973	0.100
73.700	18.977	0.100
73.800	14.915	0.100
73.900	10.720	0.100
74.000	8.465	0.100
74.100	17.047	0.100
74.200	16.276	0.100
74.300	12.797	0.100
74.400	14.097	0.100
74.500	27.975	0.100
74.600	2.359	0.100
74.700	11.776	0.100
74.800	6.759	0.100
74.900	17.506	0.100
75.000	8.815	0.100
75.100	16.105	0.100
75.200	10.679	0.100
75.300	17.936	0.100
75.400	12.061	0.100
75.500	17.740	0.100
75.600	-0.097	0.100
75.700	18.484	0.100
75.800	3.475	0.100
75.900	23.352	0.100
76.000	25.784	0.100
76.100	21.066	0.100
76.200	17.629	0.100
76.300	13.905	0.100
76.400	18.244	0.100
76.500	10.450	0.100
76.600	6.198	0.100
76.700	7.097	0.100
76.800	8.446	0.100
76.900	23.243	0.100
77.000	22.173	0.100
77.100	10.419	0.100
77.200	11.221	0.100
77.300	13.687	0.100
77.400	19.791	0.100
77.500	7.657	0.100
77.600	14.906	0.100
77.700	28.462	0.100
77.800	7.981	0.100
77.900	11.697	0.100
78.000	-0.675	0.100
78.100	20.477	0.100
78.200	16.778	0.100
78.300	11.449	0.100
78.400	16.392	0.100
78.500	5.742	0.100
78.600	3.633	0.100
78.700	0.388	0.100
78.800	18.121	0.100
78.900	21.689	0.100
79.000	23.634	0.100
79.100	8.050	0.100
79.200	1.322	0.100
79.300	9.732	0.100
79.400	15.542	0.100
79.500	13.253	0.100
79.600	11.431	0.100
79.700	26.583	0.100
79.800	13.701	0.100
79.900	9.289	0.100
80.000	22.667	0.100
80.100	14.828	0.100
80.200	13.685	0.100
80.300	22.390	0.100
80.400	11.919	0.100
80.500	18.021	0.100
80.600	12.671	0.100
80.700	15.753	0.100
80.800	9.053	0.100
80.900	14.250	0.100
81.000	12.288	0.100
81.100	21.361	0.100
81.200	8.870	0.100
81.300	3.035	0.100
81.400	20.603	0.100
81.500	14.527	0.100
81.600	11.726	0.100
81.700	12.618	0.100
81.800	7.839	0.100
81.900	-1.000	0.100
82.000	10.764	0.100
82.100	9.755	0.100
82.200	8.655	0.100
82.300	9.300	0.100
82.400	17.645	0.100
82.500	19.468	0.100
82.600	24.974	0.100
82.700	12.909	0.100
82.800	6.551	0.100
82.900	4.795	0.100
83.000	19.603	0.100
83.100	7.739	0.100
83.200	19.777	0.100
83.300	26.388	0.100
83.400	26.578	0.100
83.500	14.855	0.100
83.600	19.398	0.100
83.700	12.928	0.100
83.800	-4.221	0.100
83.900	19.730	0.100
84.000	6.508	0.100
84.100	6.813	0.100
84.200	2.519	0.100
84.300	9.655	0.100
84.400	12.403	0.100
84.500	23.527	0.100
84.600	9.909	0.100
84.700	11.293	0.100
84.800	5.538	0.100
84.900	12.446	0.100
85.000	10.879	0.100
85.100	8.338	0.100
85.200	9.988	0.100
85.300	24.060	0.100
85.400	18.182	0.100
85.500	14.650	0.100
85.600	2.917	0.100
85.700	10.642	0.100
85.800	18.805	0.100
85.900	16.509	0.100
86.000	12.459	0.100
86.100	18.265	0.100
86.200	8.710	0.100
86.300	7.309	0.100
86.400	8.907	0.100
86.500	3.640	0.100
86.600	5.222	0.100
86.700	14.315	0.100
86.800	12.548	0.100
86.900	-2.109	0.100
87.000	17.173	0.100
87.100	18.380	0.100
87.200	10.650	0.100
87.300	8.091	0.100
87.400	9.753	0.100
87.500	10.747	0.100
87.600	15.829	0.100
87.700	10.445	0.100
87.800	5.853	0.100
87.900	17.482	0.100
88.000	12.575	0.100
88.100	5.591	0.100
88.200	24.186	0.100
88.300	-8.531	0.100
88.400	27.380	0.100
88.500	3.280	0.100
88.600	1.248	0.100
88.700	22.621	0.100
88.800	2.119	0.100
88.900	17.539	0.100
89.000	5.398	0.100
89.100	13.127	0.100
89.200	9.448	0.100
89.300	11.939	0.100
89.400	10.393	0.100
89.500	14.356	0.100
89.600	8.162	0.100
89.700	12.158	0.100
89.800	3.752	0.100
89.900	27.522	0.100
90.000	2.866	0.100
90.100	10.335	0.100
90.200	5.224	0.100
90.300	9.966	0.100
90.400	-4.756	0.100
90.500	-8.378	0.100
90.600	6.547	0.100
90.700	10.575	0.100
90.800	-6.199	0.100
90.900	10.313	0.100
91.000	4.215	0.100
91.100	-19.901	0.100
91.200	-6.719	0.100
91.300	-1.166	0.100
91.400	3.465	0.100
91.500	0.754	0.100
91.600	-8.143	0.100
91.700	-18.570	0.100
91.800	-20.847	0.100
91.900	-2.373	0.100
92.000	-0.456	0.100
92.100	-3.579	0.100
92.200	-13.593	0.100
92.300	-20.305	0.100
92.400	3.795	0.100
92.500	-7.312	0.100
92.600	-13.605	0.100
92.700	-10.729	0.100
92.800	-14.482	0.100
92.900	1.628	0.100
93.000	-27.782	0.100
93.100	-36.256	0.100
93.200	-7.839	0.100
93.300	-12.389	0.100
93.400	-3.396	0.100
93.500	-18.087	0.100
93.600	-6.249	0.100
93.700	-13.622	0.100
93.800	-15.880	0.100
93.900	-13.591	0.100
94.000	-17.402	0.100
94.100	-8.161	0.100
94.200	-14.662	0.100
94.300	-24.603	0.100
94.400	-32.273	0.100
94.500	-15.870	0.100
94.600	-13.149	0.100
94.700	-23.056	0.100
94.800	-35.244	0.100
94.900	-8.681	0.100
95.000	-16.402	0.100
95.100	-33.975	0.100
95.200	-12.987	0.100
95.300	-8.094	0.100
95.400	-18.972	0.100
95.500	-35.108	0.100
95.600	-1.665	0.100
95.700	-17.994	0.100
95.800	-24.398	0.100
95.900	-5.410	0.100
96.000	-20.751	0.100
96.100	-15.938	0.100
96.200	-38.026	0.100
96.300	-24.615	0.100
96.400	-22.658	0.100
96.500	-18.869	0.100
96.600	-21.482	0.100
96.700	-17.413	0.100
96.800	-17.523	0.100
96.900	-20.983	0.100
97.000	-18.191	0.100
97.100	-18.554	0.100
97.200	-19.666	0.100
97.300	-26.317	0.100
97.400	-22.225	0.100
97.500	-15.674	0.100
97.600	-18.230	0.100
97.700	-17.414	0.100
97.800	-14.614	0.100
97.900	-22.196	0.100
98.000	-17.518	0.100
98.100	-13.359	0.100
98.200	-17.975	0.100
98.300	-20.769	0.100
98.400	-30.383	0.100
98.500	-16.299	0.100
98.600	-21.772	0.100
98.700	-21.457	0.100
98.800	-16.498	0.100
98.900	-27.386	0.100
99.000	-23.534	0.100
99.100	-18.853	0.100
99.200	0.472	0.100
99.300	-23.977	0.100
99.400	-17.508	0.100
99.500	-25.252	0.100
99.600	-18.104	0.100
99.700	-20.829	0.100
99.800	-22.197	0.100
99.900	-13.551	0.100
100.000	-28.704	0.100
100.100	-13.049	0.100
100.200	-7.104	0.100
100.300	-30.914	0.100
100.400	-19.731	0.100
100.500	-27.633	0.100
100.600	-27.273	0.100
100.700	-7.379	0.100
100.800	-34.230	0.100
100.900	-23.899	0.100
101.000	-27.684	0.100
101.100	-35.869	0.100
101.200	-26.015	0.100
101.300	-19.594	0.100
101.400	-18.732	0.100
101.500	-10.008	0.100
101.600	-25.525	0.100
101.700	-31.151	0.100
101.800	-11.722	0.100
101.900	-16.862	0.100
102.000	-20.461	0.100
102.100	-23.364	0.100
102.200	-27.022	0.100
102.300	-22.883	0.100
102.400	-16.359	0.100
102.500	-22.718	0.100
102.600	-21.636	0.100
102.700	-24.931	0.100
102.800	-22.179	0.100
102.900	-25.393	0.100
103.000	-23.306	0.100
103.100	-29.738	0.100
103.200	-10.446	0.100
103.300	-23.988	0.100
103.400	-20.248	0.100
103.500	-34.731	0.100
103.600	-22.920	0.100
103.700	-19.023	0.100
103.800	-18.081	0.100
103.900	-25.716	0.100
104.000	-13.903	0.100
104.100	-31.416	0.100
104.200	-24.146	0.100
104.300	-19.414	0.100
104.400	-15.252	0.100
104.500	-24.897	0.100
104.600	-32.655	0.100
104.700	-17.388	0.100
104.800	-31.089	0.100
104.900	-26.308	0.100
105.000	-23.809	0.100
105.100	-19.232	0.100
105.200	-19.931	0.100
105.300	-27.632	0.100
105.400	-25.680	0.100
105.500	-22.206	0.100
105.600	-27.534	0.100
105.700	-21.596	0.100
105.800	-31.701	0.100
105.900	-21.927	0.100
106.000	-33.646	0.100
106.100	-13.671	0.100
106.200	-27.932	0.100
106.300	-25.230	0.100
106.400	-24.494	0.100
106.500	-18.348	0.100
106.600	-39.042	0.100
106.700	-20.343	0.100
106.800	-19.242	0.100
106.900	-37.315	0.100
107.000	-31.937	0.100
107.100	-26.135	0.100
107.200	-39.870	0.100
107.300	-31.554	0.100
107.400	-32.421	0.100
107.500	-14.816	0.100
107.600	-28.629	0.100
107.700	-32.554	0.100
107.800	-40.259	0.100
107.900	-14.014	0.100
108.000	-20.557	0.100
108.100	-26.457	0.100
108.200	-34.983	0.100
108.300	-22.160	0.100
108.400	-26.813	0.100
108.500	-22.187	0.100
108.600	-32.804	0.100
108.700	-29.669	0.100
108.800	-27.541	0.100
108.900	-22.442	0.100
109.000	-21.011	0.100
109.100	-23.444	0.100
109.200	-34.999	0.100
109.300	-20.029	0.100
109.400	-30.159	0.100
109.500	-35.563	0.100
109.600	-37.353	0.100
109.700	-43.230	0.100
109.800	-30.168	0.100
109.900	-12.817	0.100
110.000	-24.939	0.100
110.100	-20.218	0.100
110.200	-39.949	0.100
110.300	-35.549	0.100
110.400	-28.682	0.100
110.500	-18.913	0.100
110.600	-27.982	0.100
110.700	-27.695	0.100
110.800	-19.950	0.100
110.900	-35.989	0.100
111.000	-26.456	0.100
111.100	-35.890	0.100
111.200	-43.111	0.100
111.300	-21.884	0.100
111.400	-20.817	0.100
111.500	-22.686	0.100
111.600	-24.087	0.100
111.700	-31.451	0.100
111.800	-49.990	0.100
111.900	-25.075	0.100
112.000	-32.639	0.100
112.100	-33.282	0.100
112.200	-37.153	0.100
112.300	-37.330	0.100
112.400	-34.400	0.100
112.500	-24.988	0.100
112.600	-29.874	0.100
112.700	-33.450	0.100
112.800	-27.339	0.100
112.900	-20.356	0.100
113.000	-52.029	0.100
113.100	-35.615	0.100
113.200	-35.209	0.100
113.300	-27.455	0.100
113.400	-16.487	0.100
113.500	-45.251	0.100
113.600	-26.442	0.100
113.700	-23.335	0.100
113.800	-29.370	0.100
113.900	-37.656	0.100
114.000	-37.664	0.100
114.100	-36.612	0.100
114.200	-27.819	0.100
114.300	-29.972	0.100
114.400	-28.458	0.100
114.500	-48.630	0.100
114.600	-31.266	0.100
114.700	-30.967	0.100
114.800	-42.745	0.100
114.900	-23.600	0.100
115.000	-43.481	0.100
115.100	-46.202	0.100
115.200	-37.522	0.100
115.300	-40.326	0.100
115.400	-23.659	0.100
115.500	-24.913	0.100
115.600	-38.334	0.100
115.700	-24.259	0.100
115.800	-34.479	0.100
115.900	-36.449	0.100
116.000	-35.822	0.100
116.100	-35.236	0.100
116.200	-32.969	0.100
116.300	-40.726	0.100
116.400	-41.997	0.100
116.500	-18.721	0.100
116.600	-39.608	0.100
116.700	-30.831	0.100
116.800	-29.496	0.100
116.900	-47.172	0.100
117.000	-50.568	0.100
117.100	-38.193	0.100
117.200	-26.152	0.100
117.300	-39.743	0.100
117.400	-30.507	0.100
117.500	-23.105	0.100
117.600	-39.635	0.100
117.700	-40.252	0.100
117.800	-34.417	0.100
117.900	-36.308	0.100
118.000	-25.352	0.100
118.100	-47.144	0.100
118.200	-42.095	0.100
118.300	-44.565	0.100
118.400	-38.471	0.100
118.500	-23.213	0.100
118.600	-34.788	0.100
118.700	-37.026	0.100
118.800	-32.630	0.100
118.900	-42.357	0.100
119.000	-33.989	0.100
119.100	-30.753	0.100
119.200	-38.913	0.100
119.300	-29.990	0.100
119.400	-28.950	0.100
119.500	-30.216	0.100
119.600	-51.728	0.100
119.700	-45.374	0.100
119.800	-31.242	0.100
119.900	-28.502	0.100
120.000	-43.144	0.100
120.100	-30.294	0.100
120.200	-42.220	0.100
120.300	-36.103	0.100
120.400	-28.093	0.100
120.500	-34.894	0.100
120.600	-37.905	0.100
120.700	-48.466	0.100
120.800	-32.931	0.100
120.900	-42.338	0.100
121.000	-34.497	0.100
121.100	-35.872	0.100
121.200	-31.203	0.100
121.300	-39.610	0.100
121.400	-36.346	0.100
121.500	-44.438	0.100
121.600	-30.759	0.100
121.700	-45.392	0.100
121.800	-38.689	0.100
121.900	-30.966	0.100
122.000	-35.222	0.100
122.100	-49.971	0.100
122.200	-30.743	0.100
122.300	-40.379	0.100
122.400	-39.812	0.100
122.500	-30.332	0.100
122.600	-47.026	0.100
122.700	-50.731	0.100
122.800	-36.801	0.100
122.900	-53.711	0.100
123.000	-39.388	0.100
123.100	-44.588	0.100
123.200	-50.891	0.100
123.300	-35.335	0.100
123.400	-49.454	0.100
123.500	-39.714	0.100
123.600	-40.500	0.100
123.700	-18.507	0.100
123.800	-42.653	0.100
123.900	-39.681	0.100
124.000	-45.201	0.100
124.100	-41.575	0.100
124.200	-38.466	0.100
124.300	-41.921	0.100
124.400	-30.953	0.100
124.500	-42.941	0.100
124.600	-37.762	0.100
124.700	-39.410	0.100
124.800	-39.239	0.100
124.900	-39.856	0.100
125.000	-45.920	0.100
125.100	-34.732	0.100
125.200	-45.594	0.100
125.300	-44.995	0.100
125.400	-45.622	0.100
125.500	-30.073	0.100
125.600	-34.141	0.100
125.700	-46.764	0.100
125.800	-44.560	0.100
125.900	-41.994	0.100
126.000	-35.938	0.100
126.100	-45.451	0.100
126.200	-28.075	0.100
126.300	-41.773	0.100
126.400	-41.244	0.100
126.500	-32.048	0.100
126.600	-44.922	0.100
126.700	-41.289	0.100
126.800	-41.028	0.100
126.900	-42.643	0.100
127.000	-50.855	0.100
127.100	-36.282	0.100
127.200	-40.937	0.100
127.300	-33.786	0.100
127.400	-42.092	0.100
127.500	-48.574	0.100
127.600	-37.627	0.100
127.700	-39.475	0.100
127.800	-35.713	0.100
127.900	-47.255	0.100
128.000	-42.292	0.100
128.100	-41.481	0.100
128.200	-39.334	0.100
128.300	-38.839	0.100
128.400	-46.540	0.100
128.500	-42.017	0.100
128.600	-35.002	0.100
128.700	-53.105	0.100
128.800	-42.554	0.100
128.900	-51.759	0.100
129.000	-52.043	0.100
129.100	-37.846	0.100
129.200	-42.720	0.100
129.300	-19.691	0.100
129.400	-39.742	0.100
129.500	-31.001	0.100
129.600	-38.497	0.100
129.700	-54.853	0.100
129.800	-37.971	0.100
129.900	-46.598	0.100
130.000	-45.218	0.100
130.100	-32.328	0.100
130.200	-46.311	0.100
130.300	-34.400	0.100
130.400	-46.526	0.100
130.500	-44.306	0.100
130.600	-41.105	0.100
130.700	-48.161	0.100
130.800	-52.301	0.100
130.900	-48.406	0.100
131.000	-34.807	0.100
131.100	-38.507	0.100
131.200	-34.821	0.100
131.300	-46.052	0.100
131.400	-37.964	0.100
131.500	-54.167	0.100
131.600	-49.636	0.100
131.700	-44.416	0.100
131.800	-39.379	0.100
131.900	-45.767	0.100
132.000	-42.191	0.100
132.100	-54.952	0.100
132.200	-46.994	0.100
132.300	-41.181	0.100
132.400	-48.655	0.100
132.500	-53.346	0.100
132.600	-57.465	0.100
132.700	-45.295	0.100
132.800	-42.523	0.100
132.900	-33.162	0.100
133.000	-47.142	0.100
133.100	-47.439	0.100
133.200	-47.343	0.100
133.300	-37.061	0.100
133.400	-44.317	0.100
133.500	-38.498	0.100
133.600	-51.395	0.100
133.700	-42.964	0.100
133.800	-43.438	0.100
133.900	-50.197	0.100
134.000	-38.127	0.100
134.100	-54.731	0.100
134.200	-44.650	0.100
134.300	-47.042	0.100
134.400	-46.653	0.100
134.500	-41.899	0.100
134.600	-49.013	0.100
134.700	-45.242	0.100
134.800	-41.244	0.100
134.900	-34.489	0.100
135.000	-45.751	0.100
135.100	-52.248	0.100
135.200	-50.093	0.100
135.300	-39.763	0.100
135.400	-44.261	0.100
135.500	-46.804	0.100
135.600	-46.639	0.100
135.700	-48.155	0.100
135.800	-46.353	0.100
135.900	-52.304	0.100
136.000	-43.456	0.100
136.100	-48.837	0.100
136.200	-41.688	0.100
136.300	-34.161	0.100
136.400	-42.933	0.100
136.500	-53.931	0.100
136.600	-37.981	0.100
136.700	-42.671	0.100
136.800	-64.647	0.100
136.900	-55.504	0.100
137.000	-43.884	0.100
137.100	-52.932	0.100
137.200	-60.855	0.100
137.300	-33.623	0.100
137.400	-35.876	0.100
137.500	-46.654	0.100
137.600	-42.813	0.100
137.700	-47.922	0.100
137.800	-53.379	0.100
137.900	-49.457	0.100
138.000	-45.290	0.100
138.100	-51.851	0.100
138.200	-43.842	0.100
138.300	-50.168	0.100
138.400	-56.190	0.100
138.500	-37.420	0.100
138.600	-49.492	0.100
138.700	-47.992	0.100
138.800	-32.721	0.100
138.900	-45.499	0.100
139.000	-51.734	0.100
139.100	-38.487	0.100
139.200	-55.452	0.100
139.300	-59.300	0.100
139.400	-43.970	0.100
139.500	-47.446	0.100
139.600	-49.431	0.100
139.700	-50.578	0.100
139.800	-58.336	0.100
139.900	-42.075	0.100
140.000	-58.746	0.100
140.100	-46.735	0.100
140.200	-41.055	0.100
140.300	-55.586	0.100
140.400	-62.349	0.100
140.500	-47.779	0.100
140.600	-37.337	0.100
140.700	-57.317	0.100
140.800	-47.699	0.100
140.900	-49.342	0.100
141.000	-48.990	0.100
141.100	-48.015	0.100
141.200	-64.040	0.100
141.300	-46.582	0.100
141.400	-53.760	0.100
141.500	-60.066	0.100
141.600	-59.496	0.100
141.700	-45.906	0.100
141.800	-51.573	0.100
141.900	-43.850	0.100
142.000	-52.450	0.100
142.100	-46.395	0.100
142.200	-52.471	0.100
142.300	-48.738	0.100
142.400	-51.184	0.100
142.500	-48.973	0.100
142.600	-51.782	0.100
142.700	-54.085	0.100
142.800	-39.884	0.100
142.900	-51.047	0.100
143.000	-40.145	0.100
143.100	-60.514	0.100
143.200	-43.755	0.100
143.300	-45.452	0.100
143.400	-51.449	0.100
143.500	-56.233	0.100
143.600	-43.143	0.100
143.700	-52.770	0.100
143.800	-48.710	0.100
143.900	-49.427	0.100
144.000	-48.157	0.100
144.100	-42.164	0.100
144.200	-66.900	0.100
144.300	-49.015	0.100
144.400	-52.115	0.100
144.500	-39.965	0.100
144.600	-56.473	0.100
144.700	-45.699	0.100
144.800	-45.876	0.100
144.900	-51.236	0.100
145.000	-46.172	0.100
145.100	-57.669	0.100
145.200	-60.708	0.100
145.300	-61.728	0.100
145.400	-55.413	0.100
145.500	-37.168	0.100
145.600	-44.309	0.100
145.700	-57.087	0.100
145.800	-46.977	0.100
145.900	-48.522	0.100
146.000	-50.927	0.100
146.100	-54.606	0.100
146.200	-48.361	0.100
146.300	-49.756	0.100
146.400	-52.684	0.100
146.500	-47.138	0.100
146.600	-51.262	0.100
146.700	-57.098	0.100
146.800	-49.735	0.100
146.900	-49.754	0.100
147.000	-45.344	0.100
147.100	-53.808	0.100
147.200	-66.434	0.100
147.300	-55.660	0.100
147.400	-40.724	0.100
147.500	-44.821	0.100
147.600	-56.306	0.100
147.700	-58.543	0.100
147.800	-48.156	0.100
147.900	-52.521	0.100
148.000	-37.931	0.100
148.100	-51.101	0.100
148.200	-45.866	0.100
148.300	-49.502	0.100
148.400	-60.093	0.100
148.500	-41.309	0.100
148.600	-57.807	0.100
148.700	-44.757	0.100
148.800	-53.865	0.100
148.900	-58.554	0.100
149.000	-47.053	0.100
149.100	-50.315	0.100
149.200	-65.674	0.100
149.300	-47.680	0.100
149.400	-34.982	0.100
149.500	-52.819	0.100
149.600	-50.886	0.100
149.700	-46.977	0.100
149.800	-68.132	0.100
149.900	-43.297	0.100
150.000	-53.495	0.100
150.100	-33.258	0.100
150.200	-56.964	0.100
150.300	-57.434	0.100
150.400	-47.481	0.100
150.500	-47.706	0.100
150.600	-52.196	0.100
150.700	-55.144	0.100
150.800	-45.490	0.100
150.900	-58.543	0.100
151.000	-42.564	0.100
151.100	-50.716	0.100
151.200	-40.904	0.100
151.300	-46.526	0.100
151.400	-50.082	0.100
151.500	-55.672	0.100
151.600	-55.552	0.100
151.700	-48.708	0.100
151.800	-59.468	0.100
151.900	-53.513	0.100
152.000	-51.101	0.100
152.100	-53.501	0.100
152.200	-54.211	0.100
152.300	-65.234	0.100
152.400	-57.067	0.100
152.500	-44.630	0.100
152.600	-51.633	0.100
152.700	-55.285	0.100
152.800	-56.656	0.100
152.900	-45.101	0.100
153.000	-43.385	0.100
153.100	-50.855	0.100
153.200	-56.409	0.100
153.300	-70.725	0.100
153.400	-57.005	0.100
153.500	-41.834	0.100
153.600	-38.855	0.100
153.700	-55.626	0.100
153.800	-63.708	0.100
153.900	-52.630	0.100
154.000	-46.827	0.100
154.100	-50.022	0.100
154.200	-53.764	0.100
154.300	-54.142	0.100
154.400	-46.814	0.100
154.500	-55.806	0.100
154.600	-46.935	0.100
154.700	-51.443	0.100
154.800	-49.752	0.100
154.900	-65.923	0.100
155.000	-50.975	0.100
155.100	-59.951	0.100
155.200	-41.579	0.100
155.300	-48.881	0.100
155.400	-57.568	0.100
155.500	-49.306	0.100
155.600	-53.070	0.100
155.700	-46.195	0.100
155.800	-50.549	0.100
155.900	-56.445	0.100
156.000	-54.648	0.100
156.100	-39.344	0.100
156.200	-53.276	0.100
156.300	-60.058	0.100
156.400	-50.603	0.100
156.500	-68.142	0.100
156.600	-64.163	0.100
156.700	-49.913	0.100
156.800	-46.225	0.100
156.900	-48.365	0.100
157.000	-53.760	0.100
157.100	-49.384	0.100
157.200	-68.878	0.100
157.300	-43.717	0.100
157.400	-62.704	0.100
157.500	-56.812	0.100
157.600	-40.246	0.100
157.700	-59.989	0.100
157.800	-47.333	0.100
157.900	-49.175	0.100
158.000	-48.731	0.100
158.100	-58.571	0.100
158.200	-56.339	0.100
158.300	-56.567	0.100
158.400	-59.230	0.100
158.500	-60.674	0.100
158.600	-36.017	0.100
158.700	-52.839	0.100
158.800	-45.023	0.100
158.900	-65.511	0.100
159.000	-68.296	0.100
159.100	-65.322	0.100
159.200	-36.846	0.100
159.300	-54.778	0.100
159.400	-57.244	0.100
159.500	-60.594	0.100
159.600	-48.624	0.100
159.700	-52.768	0.100
159.800	-46.889	0.100
159.900	-53.010	0.100
160.000	-53.983	0.100
160.100	-52.047	0.100
160.200	-44.451	0.100
160.300	-57.726	0.100
160.400	-47.452	0.100
160.500	-55.947	0.100
160.600	-61.972	0.100
160.700	-61.118	0.100
160.800	-58.720	0.100
160.900	-52.328	0.100
161.000	-52.459	0.100
161.100	-46.187	0.100
161.200	-55.412	0.100
161.300	-63.467	0.100
161.400	-52.799	0.100
161.500	-47.696	0.100
161.600	-40.819	0.100
161.700	-56.926	0.100
161.800	-59.018	0.100
161.900	-53.789	0.100
162.000	-65.138	0.100
162.100	-53.434	0.100
162.200	-49.812	0.100
162.300	-48.409	0.100
162.400	-56.590	0.100
162.500	-51.074	0.100
162.600	-43.759	0.100
162.700	-49.196	0.100
162.800	-54.064	0.100
162.900	-52.352	0.100
163.000	-48.435	0.100
163.100	-54.500	0.100
163.200	-56.507	0.100
163.300	-44.081	0.100
163.400	-54.701	0.100
163.500	-49.264	0.100
163.600	-62.511	0.100
163.700	-63.027	0.100
163.800	-56.049	0.100
163.900	-47.364	0.100
164.000	-44.340	0.100
164.100	-57.900	0.100
164.200	-51.389	0.100
164.300	-53.783	0.100
164.400	-57.582	0.100
164.500	-47.786	0.100
164.600	-47.892	0.100
164.700	-40.409	0.100
164.800	-58.247	0.100
164.900	-55.253	0.100
165.000	-65.335	0.100
165.100	-55.667	0.100
165.200	-47.406	0.100
165.300	-46.033	0.100
165.400	-41.002	0.100
165.500	-56.631	0.100
165.600	-56.321	0.100
165.700	-63.034	0.100
165.800	-57.316	0.100
165.900	-59.694	0.100
166.000	-55.965	0.100
166.100	-49.649	0.100
166.200	-54.709	0.100
166.300	-51.380	0.100
166.400	-63.546	0.100
166.500	-52.187	0.100
166.600	-61.757	0.100
166.700	-42.504	0.100
166.800	-55.127	0.100
166.900	-49.749	0.100
167.000	-37.451	0.100
167.100	-51.219	0.100
167.200	-58.491	0.100
167.300	-48.337	0.100
167.400	-43.525	0.100
167.500	-63.032	0.100
167.600	-63.094	0.100
167.700	-49.598	0.100
167.800	-50.959	0.100
167.900	-57.665	0.100
168.000	-46.146	0.100
168.100	-56.580	0.100
168.200	-70.934	0.100
168.300	-49.242	0.100
168.400	-45.801	0.100
168.500	-49.283	0.100
168.600	-69.541	0.100
168.700	-52.614	0.100
168.800	-48.325	0.100
168.900	-64.469	0.100
169.000	-53.942	0.100
169.100	-60.289	0.100
169.200	-55.485	0.100
169.300	-41.494	0.100
169.400	-62.692	0.100
169.500	-55.538	0.100
169.600	-47.955	0.100
169.700	-55.900	0.100
169.800	-49.917	0.100
169.900	-56.978	0.100
170.000	-58.106	0.100
170.100	-54.333	0.100
170.200	-55.226	0.100
170.300	-53.766	0.100
170.400	-60.656	0.100
170.500	-60.363	0.100
170.600	-59.023	0.100
170.700	-42.341	0.100
170.800	-56.895	0.100
170.900	-58.577	0.100
171.000	-59.043	0.100
171.100	-51.560	0.100
171.200	-62.997	0.100
171.300	-55.597	0.100
171.400	-53.748	0.100
171.500	-61.046	0.100
171.600	-47.595	0.100
171.700	-50.470	0.100
171.800	-47.093	0.100
171.900	-56.333	0.100
172.000	-60.994	0.100
172.100	-69.560	0.100
172.200	-53.094	0.100
172.300	-57.947	0.100
172.400	-39.820	0.100
172.500	-57.955	0.100
172.600	-59.932	0.100
172.700	-61.809	0.100
172.800	-62.687	0.100
172.900	-62.130	0.100
173.000	-53.517	0.100
173.100	-50.929	0.100
173.200	-53.226	0.100
173.300	-46.033	0.100
173.400	-41.573	0.100
173.500	-52.267	0.100
173.600	-50.373	0.100
173.700	-62.957	0.100
173.800	-42.511	0.100
173.900	-43.589	0.100
174.000	-38.369	0.100
174.100	-50.623	0.100
174.200	-54.631	0.100
174.300	-64.962	0.100
174.400	-66.078	0.100
174.500	-53.498	0.100
174.600	-51.205	0.100
174.700	-54.548	0.100
174.800	-57.183	0.100
174.900	-64.955	0.100
175.000	-53.878	0.100
175.100	-51.510	0.100
175.200	-55.734	0.100
175.300	-48.529	0.100
175.400	-60.421	0.100
175.500	-49.167	0.100
175.600	-45.527	0.100
175.700	-61.835	0.100
175.800	-60.412	0.100
175.900	-65.395	0.100
176.000	-65.064	0.100
176.100	-37.244	0.100
176.200	-56.892	0.100
176.300	-52.099	0.100
176.400	-62.166	0.100
176.500	-60.443	0.100
176.600	-57.403	0.100
176.700	-49.291	0.100
176.800	-55.506	0.100
176.900	-62.969	0.100
177.000	-45.816	0.100
177.100	-58.612	0.100
177.200	-52.473	0.100
177.300	-53.796	0.100
177.400	-49.742	0.100
177.500	-42.425	0.100
177.600	-50.790	0.100
177.700	-55.973	0.100
177.800	-66.689	0.100
177.900	-61.887	0.100
178.000	-44.840	0.100
178.100	-49.551	0.100
178.200	-60.431	0.100
178.300	-53.229	0.100
178.400	-52.915	0.100
178.500	-51.802	0.100
178.600	-57.252	0.100
178.700	-51.223	0.100
178.800	-56.471	0.100
178.900	-63.371	0.100
179.000	-55.792	0.100
179.100	-68.364	0.100
179.200	-64.204	0.100
179.300	-51.954	0.100
179.400	-50.537	0.100
179.500	-62.491	0.100
179.600	-57.454	0.100
179.700	-55.209	0.100
179.800	-54.370	0.100
179.900	-65.245	0.100
180.000	-42.615	0.100
180.100	-60.424	0.100
180.200	-57.503	0.100
180.300	-55.741	0.100
180.400	-51.480	0.100
180.500	-57.217	0.100
180.600	-51.781	0.100
180.700	-49.916	0.100
180.800	-43.550	0.100
180.900	-37.411	0.100
181.000	-36.969	0.100
181.100	-42.711	0.100
181.200	-55.139	0.100
181.300	-44.357	0.100
181.400	-33.672	0.100
181.500	-52.485	0.100
181.600	-46.655	0.100
181.700	-31.483	0.100
181.800	-32.692	0.100
181.900	-37.673	0.100
182.000	-44.130	0.100
182.100	-37.186	0.100
182.200	-41.024	0.100
182.300	-35.982	0.100
182.400	-43.777	0.100
182.500	-46.080	0.100
182.600	-26.759	0.100
182.700	-39.246	0.100
182.800	-33.726	0.100
182.900	-34.441	0.100
183.000	-35.935	0.100
183.100	-39.036	0.100
183.200	-34.536	0.100
183.300	-26.148	0.100
183.400	-40.998	0.100
183.500	-33.936	0.100
183.600	-36.656	0.100
183.700	-29.738	0.100
183.800	-32.237	0.100
183.900	-39.701	0.100
184.000	-39.768	0.100
184.100	-17.333	0.100
184.200	-21.450	0.100
184.300	-37.312	0.100
184.400	-41.618	0.100
184.500	-30.922	0.100
184.600	-21.685	0.100
184.700	-38.577	0.100
184.800	-24.549	0.100
184.900	-34.591	0.100
185.000	-17.508	0.100
185.100	-39.387	0.100
185.200	-32.881	0.100
185.300	-33.089	0.100
185.400	-29.447	0.100
185.500	-42.332	0.100
185.600	-31.354	0.100
185.700	-17.383	0.100
185.800	-29.207	0.100
185.900	-37.631	0.100
186.000	-36.210	0.100
186.100	-18.016	0.100
186.200	-35.448	0.100
186.300	-18.159	0.100
186.400	-33.207	0.100
186.500	-33.260	0.100
186.600	-22.993	0.100
186.700	-32.588	0.100
186.800	-22.532	0.100
186.900	-36.650	0.100
187.000	-28.873	0.100
187.100	-34.025	0.100
187.200	-31.370	0.100
187.300	-32.028	0.100
187.400	-29.946	0.100
187.500	-17.378	0.100
187.600	-19.374	0.100
187.700	-39.599	0.100
187.800	-33.659	0.100
187.900	-11.805	0.100
188.000	-41.201	0.100
188.100	-47.239	0.100
188.200	-25.553	0.100
188.300	-36.696	0.100
188.400	-31.052	0.100
188.500	-33.816	0.100
188.600	-28.820	0.100
188.700	-24.147	0.100
188.800	-28.772	0.100
188.900	-28.460	0.100
189.000	-20.355	0.100
189.100	-29.351	0.100
189.200	-34.988	0.100
189.300	-29.121	0.100
189.400	-16.403	0.100
189.500	-38.564	0.100
189.600	-21.921	0.100
189.700	-20.622	0.100
189.800	-26.692	0.100
189.900	-27.765	0.100
190.000	-24.159	0.100
190.100	-22.009	0.100
190.200	-32.115	0.100
190.300	-29.202	0.100
190.400	-38.061	0.100
190.500	-28.897	0.100
190.600	-15.286	0.100
190.700	-21.436	0.100
190.800	-16.361	0.100
190.900	-18.022	0.100
191.000	-27.106	0.100
191.100	-23.286	0.100
191.200	-19.374	0.100
191.300	-32.961	0.100
191.400	-13.435	0.100
191.500	-38.707	0.100
191.600	-19.803	0.100
191.700	-14.015	0.100
191.800	-10.153	0.100
191.900	-19.030	0.100
192.000	-16.805	0.100
192.100	-18.731	0.100
192.200	-18.181	0.100
192.300	-14.872	0.100
192.400	-21.319	0.100
192.500	-15.306	0.100
192.600	-26.741	0.100
192.700	-29.781	0.100
192.800	-26.913	0.100
192.900	-20.742	0.100
193.000	-17.180	0.100
193.100	-2.903	0.100
193.200	-26.594	0.100
193.300	-20.511	0.100
193.400	-19.132	0.100
193.500	-23.631	0.100
193.600	-26.285	0.100
193.700	-18.722	0.100
193.800	-27.447	0.100
193.900	-27.213	0.100
194.000	-27.829	0.100
194.100	-10.664	0.100
194.200	-14.157	0.100
194.300	-18.868	0.100
194.400	-6.619	0.100
194.500	-10.971	0.100
194.600	-19.309	0.100
194.700	-23.054	0.100
194.800	-16.826	0.100
194.900	-15.154	0.100
195.000	-3.061	0.100
195.100	-4.143	0.100
195.200	4.348	0.100
195.300	-20.667	0.100
195.400	-9.517	0.100
195.500	-20.641	0.100
195.600	-24.841	0.100
195.700	-6.636	0.100
195.800	-9.783	0.100
195.900	-28.222	0.100
196.000	-21.664	0.100
196.100	-14.381	0.100
196.200	-18.187	0.100
196.300	-18.818	0.100
196.400	-14.672	0.100
196.500	-14.288	0.100
196.600	-14.045	0.100
196.700	-16.630	0.100
196.800	-0.920	0.100
196.900	-18.233	0.100
197.000	-24.773	0.100
197.100	-24.431	0.100
197.200	2.977	0.100
197.300	-9.869	0.100
197.400	-17.421	0.100
197.500	-13.775	0.100
197.600	-8.915	0.100
197.700	-3.175	0.100
197.800	-14.116	0.100
197.900	-20.081	0.100
198.000	-4.049	0.100
198.100	-13.986	0.100
198.200	-5.296	0.100
198.300	-18.477	0.100
198.400	-19.778	0.100
198.500	-12.997	0.100
198.600	-13.220	0.100
198.700	-12.293	0.100
198.800	-23.266	0.100
198.900	-10.229	0.100
199.000	-8.978	0.100
199.100	-22.239	0.100
199.200	-18.570	0.100
199.300	-19.645	0.100
199.400	-12.901	0.100
199.500	-17.745	0.100
199.600	-10.154	0.100
199.700	-16.319	0.100
199.800	-11.713	0.100
199.900	-10.110	0.100
200.000	-3.055	0.100
200.100	-8.685	0.100
200.200	-8.545	0.100
200.300	-14.815	0.100
200.400	-5.609	0.100
200.500	-12.930	0.100
200.600	-12.707	0.100
200.700	-3.904	0.100
200.800	-4.352	0.100
200.900	-11.221	0.100
201.000	-8.136	0.100
201.100	-13.015	0.100
201.200	-18.577	0.100
201.300	-12.527	0.100
201.400	-0.131	0.100
201.500	-4.350	0.100
201.600	-13.144	0.100
201.700	-18.395	0.100
201.800	-15.771	0.100
201.900	-9.095	0.100
202.000	6.717	0.100
202.100	-13.507	0.100
202.200	3.341	0.100
202.300	-22.223	0.100
202.400	-9.266	0.100
202.500	-12.048	0.100
202.600	0.302	0.100
202.700	-15.109	0.100
202.800	-13.076	0.100
202.900	-26.171	0.100
203.000	-12.214	0.100
203.100	-5.124	0.100
203.200	-10.556	0.100
203.300	-2.206	0.100
203.400	-6.293	0.100
203.500	-21.778	0.100
203.600	-4.579	0.100
203.700	-22.983	0.100
203.800	2.316	0.100
203.900	-5.886	0.100
204.000	-7.761	0.100
204.100	-11.357	0.100
204.200	-13.048	0.100
204.300	1.868	0.100
204.400	-7.353	0.100
204.500	-4.570	0.100
204.600	-13.506	0.100
204.700	-1.590	0.100
204.800	-29.576	0.100
204.900	-9.230	0.100
205.000	-9.324	0.100
205.100	-10.116	0.100
205.200	-7.838	0.100
205.300	0.562	0.100
205.400	6.201	0.100
205.500	-28.569	0.100
205.600	-14.737	0.100
205.700	-13.861	0.100
205.800	-1.776	0.100
205.900	-8.326	0.100
206.000	-1.183	0.100
206.100	-9.679	0.100
206.200	-10.778	0.100
206.300	4.349	0.100
206.400	-10.758	0.100
206.500	-10.997	0.100
206.600	-16.198	0.100
206.700	-10.987	0.100
206.800	-3.623	0.100
206.900	-11.454	0.100
207.000	-13.046	0.100
207.100	-1.868	0.100
207.200	-3.735	0.100
207.300	-9.178	0.100
207.400	-11.443	0.100
207.500	-16.962	0.100
207.600	-3.988	0.100
207.700	-13.231	0.100
207.800	-1.289	0.100
207.900	-15.744	0.100
208.000	-14.418	0.100
208.100	-4.330	0.100
208.200	2.706	0.100
208.300	-9.730	0.100
208.400	-14.279	0.100
208.500	-10.358	0.100
208.600	-10.894	0.100
208.700	-4.957	0.100
208.800	-3.323	0.100
208.900	-11.525	0.100
209.000	0.229	0.100
209.100	-17.487	0.100
209.200	-6.625	0.100
209.300	-4.659	0.100
209.400	-20.355	0.100
209.500	-5.578	0.100
209.600	-5.647	0.100
209.700	-2.524	0.100
209.800	-1.322	0.100
209.900	-5.948	0.100
210.000	-11.897	0.100
210.100	-16.083	0.100
210.200	-14.503	0.100
210.300	-6.038	0.100
210.400	-19.244	0.100
210.500	-2.030	0.100
210.600	-11.915	0.100
210.700	-0.215	0.100
210.800	-6.026	0.100
210.900	-4.516	0.100
211.000	-6.141	0.100
211.100	-13.323	0.100
211.200	-4.889	0.100
211.300	-4.588	0.100
211.400	-8.085	0.100
211.500	3.030	0.100
211.600	-15.084	0.100
211.700	-12.524	0.100
211.800	-11.431	0.100
211.900	-0.033	0.100
212.000	1.199	0.100
212.100	-12.065	0.100
212.200	-20.371	0.100
212.300	0.164	0.100
212.400	-11.461	0.100
212.500	-20.531	0.100
212.600	-16.499	0.100
212.700	8.581	0.100
212.800	-4.481	0.100
212.900	-1.259	0.100
213.000	-6.093	0.100
213.100	-7.311	0.100
213.200	-2.820	0.100
213.300	-15.723	0.100
213.400	-6.092	0.100
213.500	-8.205	0.100
213.600	-2.237	0.100
213.700	-4.637	0.100
213.800	-16.957	0.100
213.900	-14.684	0.100
214.000	-8.885	0.100
214.100	-5.658	0.100
214.200	-7.877	0.100
214.300	-10.537	0.100
214.400	-3.274	0.100
214.500	-25.467	0.100
214.600	-12.491	0.100
214.700	-10.760	0.100
214.800	-7.735	0.100
214.900	-15.236	0.100
215.000	-0.027	0.100
215.100	-6.824	0.100
215.200	-8.732	0.100
215.300	-24.234	0.100
215.400	0.339	0.100
215.500	-11.301	0.100
215.600	0.370	0.100
215.700	-4.970	0.100
215.800	-3.770	0.100
215.900	-6.289	0.100
216.000	-12.815	0.100
216.100	-11.859	0.100
216.200	6.081	0.100
216.300	-9.989	0.100
216.400	-24.673	0.100
216.500	-6.758	0.100
216.600	-15.179	0.100
216.700	-10.319	0.100
216.800	1.917	0.100
216.900	4.095	0.100
217.000	-11.891	0.100
217.100	-16.091	0.100
217.200	-12.584	0.100
217.300	2.515	0.100
217.400	-4.804	0.100
217.500	-15.960	0.100
217.600	-15.403	0.100
217.700	-2.047	0.100
217.800	-19.317	0.100
217.900	1.424	0.100
218.000	-11.256	0.100
218.100	0.234	0.100
218.200	-0.827	0.100
218.300	-6.882	0.100
218.400	-14.810	0.100
218.500	-6.577	0.100
218.600	-6.524	0.100
218.700	7.105	0.100
218.800	-18.742	0.100
218.900	-12.469	0.100
219.000	-6.086	0.100
219.100	-33.024	0.100
219.200	-9.474	0.100
219.300	0.924	0.100
219.400	-6.178	0.100
219.500	-17.360	0.100
219.600	1.512	0.100
219.700	-13.317	0.100
219.800	-14.554	0.100
219.900	-1.970	0.100
220.000	-23.008	0.100
220.100	-29.697	0.100
220.200	-8.196	0.100
220.300	-2.553	0.100
220.400	-11.044	0.100
220.500	-5.614	0.100
220.600	1.698	0.100
220.700	-14.226	0.100
220.800	2.549	0.100
220.900	-3.781	0.100
221.000	0.015	0.100
221.100	-7.344	0.100
221.200	-16.753	0.100
221.300	-20.231	0.100
221.400	-4.469	0.100
221.500	-13.596	0.100
221.600	-10.489	0.100
221.700	-12.157	0.100
221.800	-2.887	0.100
221.900	-6.436	0.100
222.000	-14.675	0.100
222.100	3.291	0.100
222.200	3.558	0.100
222.300	-5.574	0.100
222.400	-14.946	0.100
222.500	-7.673	0.100
222.600	-16.854	0.100
222.700	-0.863	0.100
222.800	-10.665	0.100
222.900	-4.691	0.100
223.000	0.498	0.100
223.100	-11.948	0.100
223.200	-10.644	0.100
223.300	-19.069	0.100
223.400	-25.543	0.100
223.500	-6.392	0.100
223.600	-2.245	0.100
223.700	-9.715	0.100
223.800	-3.923	0.100
223.900	-13.671	0.100
224.000	-37.292	0.100
224.100	-8.915	0.100
224.200	-15.748	0.100
224.300	1.138	0.100
224.400	3.255	0.100
224.500	-12.419	0.100
224.600	-15.811	0.100
224.700	-15.431	0.100
224.800	-12.487	0.100
224.900	3.842	0.100
225.000	-20.310	0.100
225.100	-20.106	0.100
225.200	-9.869	0.100
225.300	-19.876	0.100
225.400	-8.461	0.100
225.500	-15.984	0.100
225.600	-13.687	0.100
225.700	-6.463	0.100
225.800	1.375	0.100
225.900	-15.940	0.100
226.000	-25.895	0.100
226.100	-7.156	0.100
226.200	-12.991	0.100
226.300	-8.523	0.100
226.400	-8.633	0.100
226.500	-9.221	0.100
226.600	-12.862	0.100
226.700	-10.438	0.100
226.800	-14.583	0.100
226.900	-7.307	0.100
227.000	-10.155	0.100
227.100	-14.991	0.100
227.200	-12.416	0.100
227.300	-15.879	0.100
227.400	-13.574	0.100
227.500	-18.613	0.100
227.600	-6.877	0.100
227.700	-3.114	0.100
227.800	-3.202	0.100
227.900	-19.216	0.100
228.000	-19.474	0.100
228.100	-10.450	0.100
228.200	-9.488	0.100
228.300	-16.712	0.100
228.400	-4.113	0.100
228.500	-8.579	0.100
228.600	-8.851	0.100
228.700	-14.671	0.100
228.800	-18.524	0.100
228.900	-10.066	0.100
229.000	6.844	0.100
229.100	-5.841	0.100
229.200	-12.702	0.100
229.300	-14.441	0.100
229.400	-12.626	0.100
229.500	-9.422	0.100
229.600	-12.154	0.100
229.700	-19.540	0.100
229.800	0.832	0.100
229.900	-15.068	0.100
230.000	-8.689	0.100
230.100	-4.241	0.100
230.200	-9.300	0.100
230.300	-25.880	0.100
230.400	-8.098	0.100
230.500	-21.598	0.100
230.600	-9.019	0.100
230.700	-26.197	0.100
230.800	-9.723	0.100
230.900	-5.120	0.100
231.000	-11.544	0.100
231.100	-3.013	0.100
231.200	-12.238	0.100
231.300	-4.069	0.100
231.400	-16.174	0.100
231.500	-17.465	0.100
231.600	-19.299	0.100
231.700	-8.242	0.100
231.800	-20.210	0.100
231.900	-16.733	0.100
232.000	-6.361	0.100
232.100	-6.320	0.100
232.200	-7.267	0.100
232.300	4.779	0.100
232.400	-21.833	0.100
232.500	-11.908	0.100
232.600	-8.687	0.100
232.700	-12.729	0.100
232.800	-17.395	0.100
232.900	-21.484	0.100
233.000	1.193	0.100
233.100	-21.017	0.100
233.200	-6.810	0.100
233.300	-18.780	0.100
233.400	-17.809	0.100
233.500	-19.933	0.100
233.600	-17.857	0.100
233.700	-12.346	0.100
233.800	-5.287	0.100
233.900	-20.464	0.100
234.000	-27.689	0.100
234.100	-4.054	0.100
234.200	-8.790	0.100
234.300	-9.733	0.100
234.400	-18.301	0.100
234.500	-9.369	0.100
234.600	2.214	0.100
234.700	-10.573	0.100
234.800	-5.297	0.100
234.900	-29.303	0.100
235.000	-4.799	0.100
235.100	-12.327	0.100
235.200	-22.928	0.100
235.300	-5.123	0.100
235.400	-1.981	0.100
235.500	-12.101	0.100
235.600	-8.657	0.100
235.700	-16.071	0.100
235.800	-2.357	0.100
235.900	-3.944	0.100
236.000	-7.533	0.100
236.100	-6.193	0.100
236.200	-12.231	0.100
236.300	-13.263	0.100
236.400	-21.572	0.100
236.500	-8.420	0.100
236.600	-14.859	0.100
236.700	-10.966	0.100
236.800	-5.021	0.100
236.900	-10.337	0.100
237.000	-28.850	0.100
237.100	-10.237	0.100
237.200	-8.730	0.100
237.300	-9.491	0.100
237.400	-11.810	0.100
237.500	-16.669	0.100
237.600	-9.774	0.100
237.700	-6.010	0.100
237.800	-21.519	0.100
237.900	-3.923	0.100
238.000	-5.383	0.100
238.100	-7.471	0.100
238.200	-10.180	0.100
238.300	-19.032	0.100
238.400	-10.023	0.100
238.500	-30.463	0.100
238.600	-11.768	0.100
238.700	-12.961	0.100
238.800	-10.335	0.100
238.900	0.593	0.100
239.000	-0.583	0.100
239.100	-16.890	0.100
239.200	-11.656	0.100
239.300	-17.901	0.100
239.400	-15.014	0.100
239.500	-11.908	0.100
239.600	-15.641	0.100
239.700	-20.045	0.100
239.800	-13.782	0.100
239.900	-4.273	0.100
240.000	-20.688	0.100
240.100	-7.349	0.100
240.200	-16.407	0.100
240.300	-16.021	0.100
240.400	-21.438	0.100
240.500	-12.060	0.100
240.600	-19.993	0.100
240.700	-13.821	0.100
240.800	-32.504	0.100
240.900	-22.351	0.100
241.000	-38.823	0.100
241.100	-24.124	0.100
241.200	-22.695	0.100
241.300	-22.751	0.100
241.400	-19.954	0.100
241.500	-23.273	0.100
241.600	-21.747	0.100
241.700	-19.566	0.100
241.800	-37.277	0.100
241.900	-24.895	0.100
242.000	-28.968	0.100
242.100	-24.972	0.100
242.200	-28.257	0.100
242.300	-32.841	0.100
242.400	-27.190	0.100
242.500	-38.145	0.100
242.600	-29.578	0.100
242.700	-34.889	0.100
242.800	-37.987	0.100
242.900	-36.051	0.100
243.000	-34.735	0.100
243.100	-28.415	0.100
243.200	-32.975	0.100
243.300	-26.668	0.100
243.400	-33.118	0.100
243.500	-58.583	0.100
243.600	-36.089	0.100
243.700	-51.468	0.100
243.800	-31.480	0.100
243.900	-47.518	0.100
244.000	-32.124	0.100
244.100	-33.879	0.100
244.200	-45.396	0.100
244.300	-33.317	0.100
244.400	-47.617	0.100
244.500	-44.726	0.100
244.600	-42.491	0.100
244.700	-33.527	0.100
244.800	-39.241	0.100
244.900	-52.706	0.100
245.000	-44.006	0.100
245.100	-39.441	0.100
245.200	-41.654	0.100
245.300	-47.031	0.100
245.400	-36.173	0.100
245.500	-41.648	0.100
245.600	-36.176	0.100
245.700	-32.031	0.100
245.800	-46.223	0.100
245.900	-44.601	0.100
246.000	-39.800	0.100
246.100	-42.679	0.100
246.200	-42.760	0.100
246.300	-35.813	0.100
246.400	-32.044	0.100
246.500	-48.005	0.100
246.600	-41.943	0.100
246.700	-58.891	0.100
246.800	-49.007	0.100
246.900	-43.268	0.100
247.000	-38.583	0.100
247.100	-52.538	0.100
247.200	-46.567	0.100
247.300	-40.890	0.100
247.400	-37.870	0.100
247.500	-36.475	0.100
247.600	-35.932	0.100
247.700	-60.637	0.100
247.800	-44.308	0.100
247.900	-47.755	0.100
248.000	-36.194	0.100
248.100	-41.899	0.100
248.200	-38.161	0.100
248.300	-43.604	0.100
248.400	-54.320	0.100
248.500	-26.907	0.100
248.600	-50.849	0.100
248.700	-59.858	0.100
248.800	-52.183	0.100
248.900	-44.788	0.100
249.000	-44.037	0.100
249.100	-37.369	0.100
249.200	-44.118	0.100
249.300	-51.724	0.100
249.400	-45.643	0.100
249.500	-46.279	0.100
249.600	-38.865	0.100
249.700	-54.934	0.100
249.800	-47.569	0.100
249.900	-33.039	0.100
250.000	-45.872	0.100
250.100	-48.227	0.100
250.200	-40.389	0.100
250.300	-44.169	0.100
250.400	-34.785	0.100
250.500	-53.447	0.100
250.600	-37.108	0.100
250.700	-54.812	0.100
250.800	-41.627	0.100
250.900	-55.667	0.100
251.000	-40.170	0.100
251.100	-24.927	0.100
251.200	-54.417	0.100
251.300	-44.953	0.100
251.400	-49.152	0.100
251.500	-41.147	0.100
251.600	-46.962	0.100
251.700	-49.505	0.100
251.800	-51.506	0.100
251.900	-43.866	0.100
252.000	-50.518	0.100
252.100	-37.863	0.100
252.200	-45.469	0.100
252.300	-42.579	0.100
252.400	-48.749	0.100
252.500	-47.770	0.100
252.600	-41.414	0.100
252.700	-49.654	0.100
252.800	-50.386	0.100
252.900	-51.253	0.100
253.000	-38.677	0.100
253.100	-46.836	0.100
253.200	-49.222	0.100
253.300	-56.373	0.100
253.400	-40.495	0.100
253.500	-49.539	0.100
253.600	-48.680	0.100
253.700	-38.326	0.100
253.800	-55.647	0.100
253.900	-61.582	0.100
254.000	-29.687	0.100
254.100	-46.121	0.100
254.200	-39.834	0.100
254.300	-58.551	0.100
254.400	-47.278	0.100
254.500	-64.672	0.100
254.600	-42.946	0.100
254.700	-50.546	0.100
254.800	-50.882	0.100
254.900	-44.881	0.100
255.000	-37.492	0.100
255.100	-44.950	0.100
255.200	-48.854	0.100
255.300	-46.892	0.100
255.400	-49.212	0.100
255.500	-50.133	0.100
255.600	-62.658	0.100
255.700	-41.886	0.100
255.800	-40.551	0.100
255.900	-49.728	0.100
256.000	-63.876	0.100
256.100	-42.592	0.100
256.200	-48.069	0.100
256.300	-48.493	0.100
256.400	-66.318	0.100
256.500	-66.994	0.100
256.600	-27.573	0.100
256.700	-42.151	0.100
256.800	-63.304	0.100
256.900	-33.926	0.100
257.000	-58.309	0.100
257.100	-54.980	0.100
257.200	-51.784	0.100
257.300	-65.108	0.100
257.400	-47.574	0.100
257.500	-53.764	0.100
257.600	-59.070	0.100
257.700	-51.207	0.100
257.800	-54.485	0.100
257.900	-37.765	0.100
258.000	-47.732	0.100
258.100	-52.214	0.100
258.200	-49.080	0.100
258.300	-55.922	0.100
258.400	-56.396	0.100
258.500	-41.993	0.100
258.600	-45.724	0.100
258.700	-39.773	0.100
258.800	-53.622	0.100
258.900	-66.039	0.100
259.000	-56.112	0.100
259.100	-49.379	0.100
259.200	-46.872	0.100
259.300	-57.944	0.100
259.400	-52.050	0.100
259.500	-60.027	0.100
259.600	-37.419	0.100
259.700	-57.418	0.100
259.800	-40.232	0.100
259.900	-57.625	0.100
260.000	-52.425	0.100
260.100	-46.407	0.100
260.200	-72.205	0.100
260.300	-43.155	0.100
260.400	-46.859	0.100
260.500	-55.379	0.100
260.600	-57.428	0.100
260.700	-49.043	0.100
260.800	-56.255	0.100
260.900	-54.168	0.100
261.000	-45.363	0.100
261.100	-51.450	0.100
261.200	-74.611	0.100
261.300	-48.208	0.100
261.400	-57.217	0.100
261.500	-41.218	0.100
261.600	-57.344	0.100
261.700	-51.573	0.100
261.800	-54.145	0.100
261.900	-59.073	0.100
262.000	-59.373	0.100
262.100	-46.351	0.100
262.200	-56.768	0.100
262.300	-48.947	0.100
262.400	-55.626	0.100
262.500	-69.270	0.100
262.600	-42.732	0.100
262.700	-56.028	0.100
262.800	-51.558	0.100
262.900	-50.513	0.100
263.000	-52.454	0.100
263.100	-60.226	0.100
263.200	-68.685	0.100
263.300	-70.028	0.100
263.400	-55.752	0.100
263.500	-59.858	0.100
263.600	-50.166	0.100
263.700	-66.350	0.100
263.800	-60.397	0.100
263.900	-53.826	0.100
264.000	-45.932	0.100
264.100	-66.494	0.100
264.200	-51.171	0.100
264.300	-64.281	0.100
264.400	-58.620	0.100
264.500	-62.759	0.100
264.600	-52.875	0.100
264.700	-58.237	0.100
264.800	-61.727	0.100
264.900	-74.120	0.100
265.000	-55.009	0.100
265.100	-50.043	0.100
265.200	-45.064	0.100
265.300	-50.628	0.100
265.400	-49.054	0.100
265.500	-53.677	0.100
265.600	-63.706	0.100
265.700	-61.660	0.100
265.800	-67.804	0.100
265.900	-58.357	0.100
266.000	-65.638	0.100
266.100	-51.092	0.100
266.200	-62.651	0.100
266.300	-72.574	0.100
266.400	-51.238	0.100
266.500	-56.855	0.100
266.600	-63.125	0.100
266.700	-62.141	0.100
266.800	-66.093	0.100
266.900	-63.170	0.100
267.000	-54.479	0.100
267.100	-53.436	0.100
267.200	-53.908	0.100
267.300	-61.844	0.100
267.400	-72.566	0.100
267.500	-54.897	0.100
267.600	-58.392	0.100
267.700	-67.267	0.100
267.800	-51.783	0.100
267.900	-51.893	0.100
268.000	-52.273	0.100
268.100	-68.860	0.100
268.200	-58.162	0.100
268.300	-78.153	0.100
268.400	-48.974	0.100
268.500	-60.238	0.100
268.600	-55.078	0.100
268.700	-52.358	0.100
268.800	-73.090	0.100
268.900	-53.811	0.100
269.000	-70.351	0.100
269.100	-67.847	0.100
269.200	-73.773	0.100
269.300	-43.058	0.100
269.400	-59.979	0.100
269.500	-64.276	0.100
269.600	-61.314	0.100
269.700	-63.679	0.100
269.800	-67.256	0.100
269.900	-64.399	0.100
270.000	-62.020	0.100
270.100	-63.882	0.100
270.200	-68.351	0.100
270.300	-64.000	0.100
270.400	-60.446	0.100
270.500	-57.070	0.100
270.600	-42.942	0.100
270.700	-64.182	0.100
270.800	-57.926	0.100
270.900	-57.914	0.100
271.000	-66.311	0.100
271.100	-64.380	0.100
271.200	-63.449	0.100
271.300	-68.840	0.100
271.400	-63.373	0.100
271.500	-56.220	0.100
271.600	-65.842	0.100
271.700	-61.147	0.100
271.800	-55.185	0.100
271.900	-76.374	0.100
272.000	-59.373	0.100
272.100	-71.897	0.100
272.200	-66.090	0.100
272.300	-66.592	0.100
272.400	-64.292	0.100
272.500	-49.049	0.100
272.600	-55.406	0.100
272.700	-69.119	0.100
272.800	-67.944	0.100
272.900	-78.795	0.100
273.000	-65.601	0.100
273.100	-65.551	0.100
273.200	-69.680	0.100
273.300	-55.906	0.100
273.400	-60.867	0.100
273.500	-63.087	0.100
273.600	-63.849	0.100
273.700	-69.210	0.100
273.800	-62.431	0.100
273.900	-71.870	0.100
274.000	-64.503	0.100
274.100	-55.896	0.100
274.200	-84.426	0.100
274.300	-63.423	0.100
274.400	-76.497	0.100
274.500	-70.329	0.100
274.600	-54.865	0.100
274.700	-48.323	0.100
274.800	-64.069	0.100
274.900	-51.164	0.100
275.000	-68.223	0.100
275.100	-80.778	0.100
275.200	-63.318	0.100
275.300	-69.212	0.100
275.400	-74.107	0.100
275.500	-60.708	0.100
275.600	-72.546	0.100
275.700	-66.068	0.100
275.800	-67.219	0.100
275.900	-65.323	0.100
276.000	-72.964	0.100
276.100	-53.728	0.100
276.200	-70.905	0.100
276.300	-64.804	0.100
276.400	-67.512	0.100
276.500	-72.217	0.100
276.600	-62.859	0.100
276.700	-54.557	0.100
276.800	-70.142	0.100
276.900	-59.129	0.100
277.000	-75.029	0.100
277.100	-79.096	0.100
277.200	-66.205	0.100
277.300	-68.479	0.100
277.400	-66.776	0.100
277.500	-67.449	0.100
277.600	-69.410	0.100
277.700	-71.361	0.100
277.800	-79.674	0.100
277.900	-65.344	0.100
278.000	-72.132	0.100
278.100	-66.251	0.100
278.200	-72.653	0.100
278.300	-66.070	0.100
278.400	-70.869	0.100
278.500	-60.603	0.100
278.600	-65.940	0.100
278.700	-67.702	0.100
278.800	-63.356	0.100
278.900	-61.266	0.100
279.000	-81.174	0.100
279.100	-75.747	0.100
279.200	-62.933	0.100
279.300	-55.985	0.100
279.400	-78.274	0.100
279.500	-70.679	0.100
279.600	-57.836	0.100
279.700	-73.469	0.100
279.800	-67.316	0.100
279.900	-89.565	0.100
280.000	-74.217	0.100
280.100	-77.002	0.100
280.200	-56.737	0.100
280.300	-60.104	0.100
280.400	-84.974	0.100
280.500	-65.623	0.100
280.600	-58.309	0.100
280.700	-72.953	0.100
280.800	-64.292	0.100
280.900	-66.068	0.100
281.000	-71.471	0.100
281.100	-80.484	0.100
281.200	-64.043	0.100
281.300	-56.021	0.100
281.400	-78.731	0.100
281.500	-76.507	0.100
281.600	-69.739	0.100
281.700	-76.814	0.100
281.800	-63.257	0.100
281.900	-76.829	0.100
282.000	-77.626	0.100
282.100	-74.014	0.100
282.200	-72.063	0.100
282.300	-71.339	0.100
282.400	-66.334	0.100
282.500	-74.634	0.100
282.600	-71.336	0.100
282.700	-56.235	0.100
282.800	-63.993	0.100
282.900	-76.776	0.100
283.000	-77.879	0.100
283.100	-70.421	0.100
283.200	-70.030	0.100
283.300	-67.529	0.100
283.400	-83.986	0.100
283.500	-79.620	0.100
283.600	-65.311	0.100
283.700	-71.834	0.100
283.800	-74.396	0.100
283.900	-65.172	0.100
284.000	-61.376	0.100
284.100	-77.879	0.100
284.200	-68.545	0.100
284.300	-73.493	0.100
284.400	-66.633	0.100
284.500	-65.576	0.100
284.600	-71.743	0.100
284.700	-66.984	0.100
284.800	-85.018	0.100
284.900	-71.412	0.100
285.000	-58.687	0.100
285.100	-71.071	0.100
285.200	-73.127	0.100
285.300	-77.345	0.100
285.400	-71.691	0.100
285.500	-69.201	0.100
285.600	-68.191	0.100
285.700	-68.473	0.100
285.800	-70.583	0.100
285.900	-71.667	0.100
286.000	-74.463	0.100
286.100	-68.705	0.100
286.200	-75.392	0.100
286.300	-65.618	0.100
286.400	-78.257	0.100
286.500	-60.454	0.100
286.600	-64.683	0.100
286.700	-66.064	0.100
286.800	-79.864	0.100
286.900	-71.837	0.100
287.000	-73.629	0.100
287.100	-89.440	0.100
287.200	-67.442	0.100
287.300	-72.021	0.100
287.400	-69.863	0.100
287.500	-70.822	0.100
287.600	-77.285	0.100
287.700	-79.152	0.100
287.800	-68.239	0.100
287.900	-71.819	0.100
288.000	-76.344	0.100
288.100	-65.140	0.100
288.200	-65.939	0.100
288.300	-57.621	0.100
288.400	-72.179	0.100
288.500	-82.260	0.100
288.600	-80.240	0.100
288.700	-83.227	0.100
288.800	-60.040	0.100
288.900	-74.225	0.100
289.000	-75.663	0.100
289.100	-71.954	0.100
289.200	-71.443	0.100
289.300	-85.390	0.100
289.400	-78.043	0.100
289.500	-68.771	0.100
289.600	-64.464	0.100
289.700	-84.025	0.100
289.800	-50.901	0.100
289.900	-82.796	0.100
290.000	-70.529	0.100
290.100	-76.938	0.100
290.200	-57.889	0.100
290.300	-71.488	0.100
290.400	-83.658	0.100
290.500	-85.450	0.100
290.600	-70.444	0.100
290.700	-77.539	0.100
290.800	-89.049	0.100
290.900	-69.289	0.100
291.000	-63.671	0.100
291.100	-80.293	0.100
291.200	-76.996	0.100
291.300	-82.783	0.100
291.400	-71.959	0.100
291.500	-73.513	0.100
291.600	-85.900	0.100
291.700	-75.095	0.100
291.800	-88.688	0.100
291.900	-88.227	0.100
292.000	-68.369	0.100
292.100	-66.945	0.100
292.200	-73.262	0.100
292.300	-71.549	0.100
292.400	-80.308	0.100
292.500	-68.279	0.100
292.600	-75.317	0.100
292.700	-68.485	0.100
292.800	-72.423	0.100
292.900	-83.023	0.100
293.000	-57.786	0.100
293.100	-82.188	0.100
293.200	-65.136	0.100
293.300	-74.526	0.100
293.400	-71.727	0.100
293.500	-77.743	0.100
293.600	-68.582	0.100
293.700	-72.527	0.100
293.800	-80.304	0.100
293.900	-80.969	0.100
294.000	-71.944	0.100
294.100	-69.787	0.100
294.200	-77.949	0.100
294.300	-75.006	0.100
294.400	-70.705	0.100
294.500	-77.461	0.100
294.600	-77.824	0.100
294.700	-78.338	0.100
294.800	-79.474	0.100
294.900	-76.620	0.100
295.000	-52.847	0.100
295.100	-76.578	0.100
295.200	-84.611	0.100
295.300	-79.166	0.100
295.400	-81.805	0.100
295.500	-71.779	0.100
295.600	-77.598	0.100
295.700	-60.874	0.100
295.800	-64.543	0.100
295.900	-72.322	0.100
296.000	-75.934	0.100
296.100	-81.352	0.100
296.200	-74.977	0.100
296.300	-82.443	0.100
296.400	-75.995	0.100
296.500	-61.373	0.100
296.600	-76.111	0.100
296.700	-79.879	0.100
296.800	-57.482	0.100
296.900	-79.572	0.100
297.000	-73.421	0.100
297.100	-72.367	0.100
297.200	-65.288	0.100
297.300	-63.511	0.100
297.400	-81.767	0.100
297.500	-72.196	0.100
297.600	-80.186	0.100
297.700	-85.743	0.100
297.800	-60.258	0.100
297.900	-72.608	0.100
298.000	-74.721	0.100
298.100	-79.543	0.100
298.200	-77.410	0.100
298.300	-70.375	0.100
298.400	-64.716	0.100
298.500	-76.099	0.100
298.600	-83.255	0.100
298.700	-68.063	0.100
298.800	-85.352	0.100
298.900	-71.233	0.100
299.000	-75.821	0.100
299.100	-75.873	0.100
299.200	-82.868	0.100
299.300	-63.666	0.100
299.400	-98.387	0.100
299.500	-77.133	0.100
299.600	-50.004	0.100
299.700	-82.076	0.100
299.800	-76.730	0.100
299.900	-62.225	0.100
300.000	-81.771	0.100
300.100	-81.337	0.100
300.200	-75.731	0.100
300.300	-78.297	0.100
300.400	-67.886	0.100
300.500	-70.584	0.100
300.600	-69.813	0.100
300.700	-81.867	0.100
300.800	-74.855	0.100
300.900	-85.960	0.100
301.000	-65.752	0.100
301.100	-79.830	0.100
301.200	-82.599	0.100
301.300	-79.215	0.100
301.400	-76.534	0.100
301.500	-74.844	0.100
301.600	-87.704	0.100
301.700	-75.309	0.100
301.800	-60.718	0.100
301.900	-72.040	0.100
302.000	-76.533	0.100
302.100	-68.961	0.100
302.200	-86.509	0.100
302.300	-89.981	0.100
302.400	-59.094	0.100
302.500	-74.053	0.100
302.600	-75.638	0.100
302.700	-62.955	0.100
302.800	-67.616	0.100
302.900	-73.487	0.100
303.000	-74.837	0.100
303.100	-70.522	0.100
303.200	-86.001	0.100
303.300	-73.538	0.100
303.400	-79.958	0.100
303.500	-83.739	0.100
303.600	-76.888	0.100
303.700	-68.904	0.100
303.800	-83.018	0.100
303.900	-77.949	0.100
304.000	-59.613	0.100
304.100	-90.102	0.100
304.200	-70.414	0.100
304.300	-82.415	0.100
304.400	-67.158	0.100
304.500	-80.417	0.100
304.600	-80.723	0.100
304.700	-68.052	0.100
304.800	-78.371	0.100
304.900	-68.775	0.100
305.000	-92.288	0.100
305.100	-77.755	0.100
305.200	-75.843	0.100
305.300	-78.832	0.100
305.400	-67.548	0.100
305.500	-81.498	0.100
305.600	-69.550	0.100
305.700	-78.624	0.100
305.800	-82.528	0.100
305.900	-76.186	0.100
306.000	-75.196	0.100
306.100	-66.274	0.100
306.200	-66.017	0.100
306.300	-93.284	0.100
306.400	-72.595	0.100
306.500	-66.955	0.100
306.600	-62.266	0.100
306.700	-83.902	0.100
306.800	-67.532	0.100
306.900	-78.884	0.100
307.000	-74.415	0.100
307.100	-87.788	0.100
307.200	-78.635	0.100
307.300	-73.263	0.100
307.400	-76.791	0.100
307.500	-87.159	0.100
307.600	-65.126	0.100
307.700	-76.337	0.100
307.800	-82.204	0.100
307.900	-73.425	0.100
308.000	-89.307	0.100
308.100	-73.256	0.100
308.200	-72.920	0.100
308.300	-81.560	0.100
308.400	-70.697	0.100
308.500	-89.041	0.100
308.600	-79.434	0.100
308.700	-81.071	0.100
308.800	-73.545	0.100
308.900	-80.964	0.100
309.000	-77.922	0.100
309.100	-82.621	0.100
309.200	-77.781	0.100
309.300	-79.389	0.100
309.400	-74.137	0.100
309.500	-76.323	0.100
309.600	-75.001	0.100
309.700	-81.081	0.100
309.800	-66.033	0.100
309.900	-79.592	0.100
310.000	-78.029	0.100
310.100	-74.181	0.100
310.200	-73.284	0.100
310.300	-61.362	0.100
310.400	-85.273	0.100
310.500	-64.329	0.100
310.600	-81.838	0.100
310.700	-84.881	0.100
310.800	-79.478	0.100
310.900	-81.376	0.100
311.000	-70.517	0.100
311.100	-70.914	0.100
311.200	-63.131	0.100
311.300	-85.512	0.100
311.400	-76.365	0.100
311.500	-81.017	0.100
311.600	-76.055	0.100
311.700	-69.066	0.100
311.800	-84.330	0.100
311.900	-67.672	0.100
312.000	-83.440	0.100
312.100	-88.291	0.100
312.200	-77.696	0.100
312.300	-80.645	0.100
312.400	-80.659	0.100
312.500	-80.513	0.100
312.600	-69.960	0.100
312.700	-83.147	0.100
312.800	-93.105	0.100
312.900	-88.150	0.100
313.000	-57.027	0.100
313.100	-69.023	0.100
313.200	-64.180	0.100
313.300	-80.917	0.100
313.400	-72.583	0.100
313.500	-89.680	0.100
313.600	-82.792	0.100
313.700	-73.948	0.100
313.800	-80.557	0.100
313.900	-69.261	0.100
314.000	-59.749	0.100
314.100	-91.166	0.100
314.200	-81.822	0.100
314.300	-89.126	0.100
314.400	-57.849	0.100
314.500	-81.328	0.100
314.600	-89.073	0.100
314.700	-79.620	0.100
314.800	-85.221	0.100
314.900	-82.248	0.100
315.000	-72.221	0.100
315.100	-76.369	0.100
315.200	-62.468	0.100
315.300	-84.328	0.100
315.400	-81.605	0.100
315.500	-79.310	0.100
315.600	-74.298	0.100
315.700	-77.467	0.100
315.800	-79.121	0.100
315.900	-63.932	0.100
316.000	-76.528	0.100
316.100	-77.136	0.100
316.200	-66.626	0.100
316.300	-74.210	0.100
316.400	-70.443	0.100
316.500	-74.544	0.100
316.600	-86.437	0.100
316.700	-77.728	0.100
316.800	-80.784	0.100
316.900	-79.833	0.100
317.000	-77.756	0.100
317.100	-65.766	0.100
317.200	-52.168	0.100
317.300	-92.501	0.100
317.400	-84.741	0.100
317.500	-77.771	0.100
317.600	-74.814	0.100
317.700	-68.287	0.100
317.800	-74.156	0.100
317.900	-64.075	0.100
318.000	-87.296	0.100
318.100	-69.889	0.100
318.200	-80.655	0.100
318.300	-71.934	0.100
318.400	-81.829	0.100
318.500	-77.575	0.100
318.600	-62.578	0.100
318.700	-90.274	0.100
318.800	-71.806	0.100
318.900	-75.404	0.100
319.000	-80.445	0.100
319.100	-88.083	0.100
319.200	-75.735	0.100
319.300	-69.731	0.100
319.400	-90.449	0.100
319.500	-63.384	0.100
319.600	-70.115	0.100
319.700	-78.828	0.100
319.800	-85.134	0.100
319.900	-71.536	0.100
320.000	-78.560	0.100
320.100	-88.676	0.100
320.200	-71.333	0.100
320.300	-69.844	0.100
320.400	-73.281	0.100
320.500	-90.239	0.100
320.600	-73.638	0.100
320.700	-72.236	0.100
320.800	-72.192	0.100
320.900	-80.820	0.100
321.000	-82.191	0.100
321.100	-78.112	0.100
321.200	-69.344	0.100
321.300	-75.368	0.100
321.400	-74.534	0.100
321.500	-87.039	0.100
321.600	-67.218	0.100
321.700	-83.936	0.100
321.800	-84.619	0.100
321.900	-76.480	0.100
322.000	-64.670	0.100
322.100	-72.759	0.100
322.200	-86.891	0.100
322.300	-74.498	0.100
322.400	-63.394	0.100
322.500	-89.243	0.100
322.600	-66.954	0.100
322.700	-78.258	0.100
322.800	-80.157	0.100
322.900	-70.407	0.100
323.000	-71.718	0.100
323.100	-82.605	0.100
323.200	-80.717	0.100
323.300	-72.848	0.100
323.400	-76.001	0.100
323.500	-86.965	0.100
323.600	-68.926	0.100
323.700	-77.916	0.100
323.800	-86.696	0.100
323.900	-81.112	0.100
324.000	-66.615	0.100
324.100	-78.413	0.100
324.200	-75.477	0.100
324.300	-81.340	0.100
324.400	-75.181	0.100
324.500	-88.198	0.100
324.600	-61.164	0.100
324.700	-76.607	0.100
324.800	-60.848	0.100
324.900	-76.189	0.100
325.000	-87.719	0.100
325.100	-81.675	0.100
325.200	-77.817	0.100
325.300	-83.807	0.100
325.400	-56.153	0.100
325.500	-72.119	0.100
325.600	-85.469	0.100
325.700	-76.727	0.100
325.800	-84.615	0.100
325.900	-70.511	0.100
326.000	-89.610	0.100
326.100	-70.449	0.100
326.200	-87.640	0.100
326.300	-72.820	0.100
326.400	-75.267	0.100
326.500	-96.412	0.100
326.600	-84.563	0.100
326.700	-86.909	0.100
326.800	-63.850	0.100
326.900	-79.191	0.100
327.000	-77.767	0.100
327.100	-74.868	0.100
327.200	-95.369	0.100
327.300	-72.193	0.100
327.400	-74.980	0.100
327.500	-72.429	0.100
327.600	-80.831	0.100
327.700	-87.906	0.100
327.800	-71.496	0.100
327.900	-69.186	0.100
328.000	-63.642	0.100
328.100	-81.399	0.100
328.200	-82.439	0.100
328.300	-75.842	0.100
328.400	-71.592	0.100
328.500	-69.115	0.100
328.600	-77.750	0.100
328.700	-86.257	0.100
328.800	-56.514	0.100
328.900	-70.932	0.100
329.000	-97.709	0.100
329.100	-76.333	0.100
329.200	-78.019	0.100
329.300	-79.122	0.100
329.400	-75.015	0.100
329.500	-83.426	0.100
329.600	-76.810	0.100
329.700	-83.484	0.100
329.800	-72.540	0.100
329.900	-73.824	0.100
330.000	-70.060	0.100
330.100	-75.486	0.100
330.200	-75.303	0.100
330.300	-83.813	0.100
330.400	-90.594	0.100
330.500	-72.510	0.100
330.600	-64.060	0.100
330.700	-79.491	0.100
330.800	-67.480	0.100
330.900	-74.899	0.100
331.000	-78.060	0.100
331.100	-60.733	0.100
331.200	-68.940	0.100
331.300	-71.945	0.100
331.400	-60.369	0.100
331.500	-66.710	0.100
331.600	-67.102	0.100
331.700	-69.708	0.100
331.800	-55.927	0.100
331.900	-79.953	0.100
332.000	-58.492	0.100
332.100	-59.555	0.100
332.200	-63.807	0.100
332.300	-57.739	0.100
332.400	-62.611	0.100
332.500	-68.129	0.100
332.600	-69.308	0.100
332.700	-67.740	0.100
332.800	-59.170	0.100
332.900	-71.162	0.100
333.000	-70.556	0.100
333.100	-59.403	0.100
333.200	-64.425	0.100
333.300	-62.262	0.100
333.400	-69.732	0.100
333.500	-59.772	0.100
333.600	-63.426	0.100
333.700	-58.974	0.100
333.800	-64.583	0.100
333.900	-48.083	0.100
334.000	-51.345	0.100
334.100	-71.812	0.100
334.200	-60.899	0.100
334.300	-69.154	0.100
334.400	-59.789	0.100
334.500	-39.479	0.100
334.600	-65.431	0.100
334.700	-48.521	0.100
334.800	-64.534	0.100
334.900	-62.048	0.100
335.000	-52.555	0.100
335.100	-51.086	0.100
335.200	-58.950	0.100
335.300	-54.068	0.100
335.400	-51.264	0.100
335.500	-55.011	0.100
335.600	-54.118	0.100
335.700	-59.717	0.100
335.800	-59.471	0.100
335.900	-56.009	0.100
336.000	-61.152	0.100
336.100	-62.167	0.100
336.200	-58.723	0.100
336.300	-72.717	0.100
336.400	-59.288	0.100
336.500	-54.762	0.100
336.600	-50.928	0.100
336.700	-51.168	0.100
336.800	-54.665	0.100
336.900	-49.335	0.100
337.000	-64.800	0.100
337.100	-65.428	0.100
337.200	-56.490	0.100
337.300	-50.298	0.100
337.400	-45.450	0.100
337.500	-59.898	0.100
337.600	-53.086	0.100
337.700	-44.461	0.100
337.800	-65.926	0.100
337.900	-42.576	0.100
338.000	-38.674	0.100
338.100	-50.730	0.100
338.200	-51.653	0.100
338.300	-52.593	0.100
338.400	-51.307	0.100
338.500	-46.449	0.100
338.600	-50.264	0.100
338.700	-54.620	0.100
338.800	-49.084	0.100
338.900	-51.129	0.100
339.000	-47.478	0.100
339.100	-38.308	0.100
339.200	-51.187	0.100
339.300	-50.145	0.100
339.400	-53.739	0.100
339.500	-42.385	0.100
339.600	-42.744	0.100
339.700	-47.067	0.100
339.800	-41.439	0.100
339.900	-49.633	0.100
340.000	-50.065	0.100
340.100	-36.337	0.100
340.200	-45.848	0.100
340.300	-61.287	0.100
340.400	-38.699	0.100
340.500	-46.123	0.100
340.600	-46.584	0.100
340.700	-61.490	0.100
340.800	-49.174	0.100
340.900	-39.653	0.100
341.000	-56.261	0.100
341.100	-54.614	0.100
341.200	-47.613	0.100
341.300	-43.374	0.100
341.400	-47.345	0.100
341.500	-42.481	0.100
341.600	-48.021	0.100
341.700	-53.245	0.100
341.800	-54.168	0.100
341.900	-44.350	0.100
342.000	-43.511	0.100
342.100	-59.141	0.100
342.200	-41.406	0.100
342.300	-45.429	0.100
342.400	-40.571	0.100
342.500	-55.877	0.100
342.600	-62.209	0.100
342.700	-37.093	0.100
342.800	-31.358	0.100
342.900	-42.927	0.100
343.000	-54.711	0.100
343.100	-40.935	0.100
343.200	-52.559	0.100
343.300	-41.080	0.100
343.400	-37.998	0.100
343.500	-42.838	0.100
343.600	-34.128	0.100
343.700	-49.414	0.100
343.800	-43.827	0.100
343.900	-44.563	0.100
344.000	-54.365	0.100
344.100	-42.027	0.100
344.200	-33.219	0.100
344.300	-39.568	0.100
344.400	-49.773	0.100
344.500	-48.149	0.100
344.600	-44.409	0.100
344.700	-51.442	0.100
344.800	-43.530	0.100
344.900	-42.149	0.100
345.000	-40.098	0.100
345.100	-37.388	0.100
345.200	-40.819	0.100
345.300	-41.194	0.100
345.400	-38.915	0.100
345.500	-44.716	0.100
345.600	-46.760	0.100
345.700	-42.640	0.100
345.800	-30.190	0.100
345.900	-40.066	0.100
346.000	-51.731	0.100
346.100	-32.341	0.100
346.200	-35.374	0.100
346.300	-31.837	0.100
346.400	-39.783	0.100
346.500	-48.272	0.100
346.600	-36.770	0.100
346.700	-39.371	0.100
346.800	-52.542	0.100
346.900	-39.940	0.100
347.000	-34.536	0.100
347.100	-25.015	0.100
347.200	-33.752	0.100
347.300	-49.060	0.100
347.400	-30.989	0.100
347.500	-29.971	0.100
347.600	-46.975	0.100
347.700	-40.894	0.100
347.800	-36.565	0.100
347.900	-46.002	0.100
348.000	-32.434	0.100
348.100	-28.175	0.100
348.200	-25.184	0.100
348.300	-37.298	0.100
348.400	-44.290	0.100
348.500	-51.306	0.100
348.600	-28.966	0.100
348.700	-42.709	0.100
348.800	-38.937	0.100
348.900	-43.252	0.100
349.000	-36.032	0.100
349.100	-37.244	0.100
349.200	-39.565	0.100
349.300	-40.402	0.100
349.400	-36.035	0.100
349.500	-27.894	0.100
349.600	-39.250	0.100
349.700	-29.345	0.100
349.800	-26.687	0.100
349.900	-30.453	0.100
350.000	-34.119	0.100
350.100	-33.642	0.100
350.200	-30.566	0.100
350.300	-33.232	0.100
350.400	-21.388	0.100
350.500	-27.906	0.100
350.600	-28.872	0.100
350.700	-40.168	0.100
350.800	-31.566	0.100
350.900	-33.563	0.100
351.000	-42.286	0.100
351.100	-37.663	0.100
351.200	-30.653	0.100
351.300	-26.105	0.100
351.400	-34.645	0.100
351.500	-30.476	0.100
351.600	-51.782	0.100
351.700	-15.441	0.100
351.800	-32.363	0.100
351.900	-52.445	0.100
352.000	-31.812	0.100
352.100	-39.370	0.100
352.200	-24.535	0.100
352.300	-34.018	0.100
352.400	-41.180	0.100
352.500	-35.392	0.100
352.600	-31.275	0.100
352.700	-33.903	0.100
352.800	-59.504	0.100
352.900	-30.081	0.100
353.000	-28.001	0.100
353.100	-34.450	0.100
353.200	-50.856	0.100
353.300	-39.135	0.100
353.400	-29.030	0.100
353.500	-34.694	0.100
353.600	-37.727	0.100
353.700	-35.203	0.100
353.800	-30.402	0.100
353.900	-22.560	0.100
354.000	-27.736	0.100
354.100	-40.360	0.100
354.200	-38.976	0.100
354.300	-28.842	0.100
354.400	-25.473	0.100
354.500	-25.052	0.100
354.600	-22.938	0.100
354.700	-29.585	0.100
354.800	-41.751	0.100
354.900	-32.088	0.100
355.000	-25.234	0.100
355.100	-34.082	0.100
355.200	-32.549	0.100
355.300	-29.287	0.100
355.400	-30.395	0.100
355.500	-31.714	0.100
355.600	-38.516	0.100
355.700	-32.153	0.100
355.800	-43.299	0.100
355.900	-36.818	0.100
356.000	-20.712	0.100
356.100	-30.755	0.100
356.200	-36.113	0.100
356.300	-30.379	0.100
356.400	-28.756	0.100
356.500	-32.627	0.100
356.600	-31.438	0.100
356.700	-39.576	0.100
356.800	-49.668	0.100
356.900	-26.039	0.100
357.000	-29.641	0.100
357.100	-33.207	0.100
357.200	-24.914	0.100
357.300	-26.733	0.100
357.400	-28.451	0.100
357.500	-29.051	0.100
357.600	-41.368	0.100
357.700	-34.657	0.100
357.800	-21.790	0.100
357.900	-24.382	0.100
358.000	-19.835	0.100
358.100	-35.324	0.100
358.200	-34.897	0.100
358.300	-39.668	0.100
358.400	-18.583	0.100
358.500	-35.564	0.100
358.600	-37.579	0.100
358.700	-24.670	0.100
358.800	-31.314	0.100
358.900	-36.505	0.100
359.000	-27.382	0.100
359.100	-22.017	0.100
359.200	-36.205	0.100
359.300	-25.259	0.100
359.400	-27.144	0.100
359.500	-27.865	0.100
359.600	-41.429	0.100
359.700	-32.410	0.100
359.800	-17.346	0.100
359.900	-42.073	0.100
360.000	-26.290	0.100
360.100	-34.290	0.100
360.200	-41.575	0.100
360.300	-12.079	0.100
360.400	-23.230	0.100
360.500	-35.863	0.100
360.600	-31.233	0.100
360.700	-32.870	0.100
360.800	-21.389	0.100
360.900	-25.089	0.100
361.000	-44.472	0.100
361.100	-35.764	0.100
361.200	-23.400	0.100
361.300	-34.478	0.100
361.400	-47.107	0.100
361.500	-19.383	0.100
361.600	-30.608	0.100
361.700	-21.038	0.100
361.800	-33.079	0.100
361.900	-30.074	0.100
362.000	-31.490	0.100
362.100	-36.604	0.100
362.200	-24.240	0.100
362.300	-16.989	0.100
362.400	-36.863	0.100
362.500	-31.335	0.100
362.600	-26.899	0.100
362.700	-19.985	0.100
362.800	-44.649	0.100
362.900	-25.789	0.100
363.000	-22.713	0.100
363.100	-33.309	0.100
363.200	-28.527	0.100
363.300	-44.265	0.100
363.400	-30.255	0.100
363.500	-25.346	0.100
363.600	-29.817	0.100
363.700	-33.902	0.100
363.800	-27.346	0.100
363.900	-23.037	0.100
364.000	-32.023	0.100
364.100	-48.227	0.100
364.200	-20.049	0.100
364.300	-15.537	0.100
364.400	-42.169	0.100
364.500	-33.202	0.100
364.600	-20.790	0.100
364.700	-26.733	0.100
364.800	-30.206	0.100
364.900	-29.806	0.100
365.000	-42.171	0.100
365.100	-37.073	0.100
365.200	-24.401	0.100
365.300	-25.699	0.100
365.400	-21.107	0.100
365.500	-36.061	0.100
365.600	-13.099	0.100
365.700	-22.344	0.100
365.800	-27.728	0.100
365.900	-30.745	0.100
366.000	-29.395	0.100
366.100	-18.973	0.100
366.200	-24.586	0.100
366.300	-38.635	0.100
366.400	-30.709	0.100
366.500	-39.953	0.100
366.600	-40.858	0.100
366.700	-26.053	0.100
366.800	-35.057	0.100
366.900	-31.322	0.100
367.000	-30.224	0.100
367.100	-31.437	0.100
367.200	-28.841	0.100
367.300	-29.414	0.100
367.400	-27.006	0.100
367.500	-43.294	0.100
367.600	-35.496	0.100
367.700	-51.575	0.100
367.800	-31.067	0.100
367.900	-30.323	0.100
368.000	-24.753	0.100
368.100	-20.931	0.100
368.200	-38.152	0.100
368.300	-25.400	0.100
368.400	-26.089	0.100
368.500	-29.380	0.100
368.600	-33.938	0.100
368.700	-28.953	0.100
368.800	-41.335	0.100
368.900	-31.507	0.100
369.000	-35.863	0.100
369.100	-34.729	0.100
369.200	-27.286	0.100
369.300	-37.983	0.100
369.400	-30.636	0.100
369.500	-33.377	0.100
369.600	-40.362	0.100
369.700	-21.688	0.100
369.800	-30.744	0.100
369.900	-27.349	0.100
370.000	-23.058	0.100
370.100	-25.637	0.100
370.200	-35.189	0.100
370.300	-29.021	0.100
370.400	-28.004	0.100
370.500	-28.095	0.100
370.600	-20.647	0.100
370.700	-26.483	0.100
370.800	-22.336	0.100
370.900	-32.866	0.100
371.000	-43.358	0.100
371.100	-31.817	0.100
371.200	-27.681	0.100
371.300	-26.566	0.100
371.400	-32.804	0.100
371.500	-32.303	0.100
371.600	-26.823	0.100
371.700	-41.343	0.100
371.800	-30.359	0.100
371.900	-27.222	0.100
372.000	-34.367	0.100
372.100	-27.428	0.100
372.200	-27.007	0.100
372.300	-22.841	0.100
372.400	-26.634	0.100
372.500	-29.304	0.100
372.600	-30.237	0.100
372.700	-22.590	0.100
372.800	-29.735	0.100
372.900	-31.609	0.100
373.000	-29.602	0.100
373.100	-33.278	0.100
373.200	-37.514	0.100
373.300	-26.919	0.100
373.400	-14.316	0.100
373.500	-24.774	0.100
373.600	-37.476	0.100
373.700	-26.529	0.100
373.800	-44.732	0.100
373.900	-26.729	0.100
374.000	-40.474	0.100
374.100	-20.114	0.100
374.200	-36.625	0.100
374.300	-27.032	0.100
374.400	-40.727	0.100
374.500	-25.635	0.100
374.600	-25.665	0.100
374.700	-30.112	0.100
374.800	-32.335	0.100
374.900	-26.923	0.100
375.000	-34.627	0.100
375.100	-40.469	0.100
375.200	-27.507	0.100
375.300	-35.497	0.100
375.400	-32.248	0.100
375.500	-38.331	0.100
375.600	-43.032	0.100
375.700	-30.863	0.100
375.800	-23.493	0.100
375.900	-19.294	0.100
376.000	-30.208	0.100
376.100	-38.114	0.100
376.200	-33.119	0.100
376.300	-31.297	0.100
376.400	-32.099	0.100
376.500	-33.385	0.100
376.600	-18.236	0.100
376.700	-32.411	0.100
376.800	-46.164	0.100
376.900	-46.241	0.100
377.000	-24.426	0.100
377.100	-42.280	0.100
377.200	-25.487	0.100
377.300	-38.223	0.100
377.400	-16.594	0.100
377.500	-29.391	0.100
377.600	-35.883	0.100
377.700	-26.685	0.100
377.800	-36.698	0.100
377.900	-36.521	0.100
378.000	-22.913	0.100
378.100	-34.502	0.100
378.200	-32.256	0.100
378.300	-28.408	0.100
378.400	-36.154	0.100
378.500	-33.536	0.100
378.600	-38.342	0.100
378.700	-21.809	0.100
378.800	-32.401	0.100
378.900	-28.707	0.100
379.000	-39.343	0.100
379.100	-13.398	0.100
379.200	-37.373	0.100
379.300	-30.037	0.100
379.400	-18.285	0.100
379.500	-35.828	0.100
379.600	-38.095	0.100
379.700	-34.986	0.100
379.800	-35.710	0.100
379.900	-24.583	0.100
380.000	-36.940	0.100
380.100	-30.824	0.100
380.200	-12.673	0.100
380.300	-14.402	0.100
380.400	-40.236	0.100
380.500	-32.996	0.100
380.600	-26.838	0.100
380.700	-19.337	0.100
380.800	-43.718	0.100
380.900	-16.590	0.100
381.000	-25.272	0.100
381.100	-20.886	0.100
381.200	-27.099	0.100
381.300	-27.076	0.100
381.400	-28.421	0.100
381.500	-50.632	0.100
381.600	-29.888	0.100
381.700	-23.655	0.100
381.800	-30.568	0.100
381.900	-34.132	0.100
382.000	-24.821	0.100
382.100	-28.335	0.100
382.200	-41.134	0.100
382.300	-23.464	0.100
382.400	-27.539	0.100
382.500	-49.595	0.100
382.600	-19.826	0.100
382.700	-35.549	0.100
382.800	-22.295	0.100
382.900	-40.310	0.100
383.000	-34.239	0.100
383.100	-34.284	0.100
383.200	-30.967	0.100
383.300	-32.398	0.100
383.400	-43.271	0.100
383.500	-25.629	0.100
383.600	-26.195	0.100
383.700	-23.151	0.100
383.800	-38.010	0.100
383.900	-28.969	0.100
384.000	-32.691	0.100
384.100	-34.779	0.100
384.200	-37.611	0.100
384.300	-27.438	0.100
384.400	-26.291	0.100
384.500	-36.833	0.100
384.600	-43.704	0.100
384.700	-39.766	0.100
384.800	-33.682	0.100
384.900	-28.281	0.100
385.000	-27.846	0.100
385.100	-27.371	0.100
385.200	-17.961	0.100
385.300	-24.838	0.100
385.400	-28.496	0.100
385.500	-31.034	0.100
385.600	-34.337	0.100
385.700	-45.435	0.100
385.800	-32.827	0.100
385.900	-40.164	0.100
386.000	-26.521	0.100
386.100	-25.137	0.100
386.200	-18.730	0.100
386.300	-31.496	0.100
386.400	-28.731	0.100
386.500	-39.634	0.100
386.600	-23.925	0.100
386.700	-22.330	0.100
386.800	-38.684	0.100
386.900	-37.060	0.100
387.000	-38.193	0.100
387.100	-27.027	0.100
387.200	-27.806	0.100
387.300	-36.133	0.100
387.400	-41.474	0.100
387.500	-31.702	0.100
387.600	-31.108	0.100
387.700	-11.906	0.100
387.800	-34.101	0.100
387.900	-34.638	0.100
388.000	-36.377	0.100
388.100	-32.490	0.100
388.200	-35.513	0.100
388.300	-19.208	0.100
388.400	-31.482	0.100
388.500	-34.074	0.100
388.600	-30.865	0.100
388.700	-48.534	0.100
388.800	-25.889	0.100
388.900	-31.097	0.100
389.000	-22.310	0.100
389.100	-39.139	0.100
389.200	-33.764	0.100
389.300	-12.164	0.100
389.400	-22.274	0.100
389.500	-40.381	0.100
389.600	-33.466	0.100
389.700	-45.484	0.100
389.800	-20.266	0.100
389.900	-23.895	0.100
390.000	-32.692	0.100
390.100	-37.227	0.100
390.200	-31.705	0.100
390.300	-41.524	0.100
390.400	-32.511	0.100
390.500	-37.362	0.100
390.600	-27.868	0.100
390.700	-36.462	0.100
390.800	-40.553	0.100
390.900	-38.192	0.100
391.000	-40.311	0.100
391.100	-35.922	0.100
391.200	-53.581	0.100
391.300	-37.615	0.100
391.400	-49.027	0.100
391.500	-36.654	0.100
391.600	-48.753	0.100
391.700	-34.390	0.100
391.800	-49.898	0.100
391.900	-38.656	0.100
392.000	-48.830	0.100
392.100	-42.683	0.100
392.200	-55.564	0.100
392.300	-51.735	0.100
392.400	-57.648	0.100
392.500	-41.043	0.100
392.600	-43.314	0.100
392.700	-45.029	0.100
392.800	-47.829	0.100
392.900	-59.450	0.100
393.000	-47.082	0.100
393.100	-59.430	0.100
393.200	-39.167	0.100
393.300	-55.640	0.100
393.400	-44.836	0.100
393.500	-57.120	0.100
393.600	-58.621	0.100
393.700	-49.976	0.100
393.800	-44.344	0.100
393.900	-56.820	0.100
394.000	-46.738	0.100
394.100	-51.771	0.100
394.200	-62.985	0.100
394.300	-63.883	0.100
394.400	-51.441	0.100
394.500	-62.564	0.100
394.600	-50.663	0.100
394.700	-57.188	0.100
394.800	-64.633	0.100
394.900	-52.999	0.100
395.000	-56.652	0.100
395.100	-63.583	0.100
395.200	-63.057	0.100
395.300	-70.179	0.100
395.400	-47.477	0.100
395.500	-48.242	0.100
395.600	-69.051	0.100
395.700	-60.659	0.100
395.800	-69.919	0.100
395.900	-41.840	0.100
396.000	-65.733	0.100
396.100	-63.124	0.100
396.200	-57.705	0.100
396.300	-47.694	0.100
396.400	-63.430	0.100
396.500	-50.583	0.100
396.600	-61.647	0.100
396.700	-75.926	0.100
396.800	-60.675	0.100
396.900	-59.708	0.100
397.000	-54.946	0.100
397.100	-42.407	0.100
397.200	-59.748	0.100
397.300	-69.212	0.100
397.400	-57.958	0.100
397.500	-61.248	0.100
397.600	-66.528	0.100
397.700	-60.642	0.100
397.800	-49.308	0.100
397.900	-66.864	0.100
398.000	-69.122	0.100
398.100	-56.921	0.100
398.200	-49.607	0.100
398.300	-62.922	0.100
398.400	-69.248	0.100
398.500	-66.414	0.100
398.600	-54.602	0.100
398.700	-61.502	0.100
398.800	-62.622	0.100
398.900	-70.539	0.100
399.000	-59.541	0.100
399.100	-65.216	0.100
399.200	-67.484	0.100
399.300	-70.474	0.100
399.400	-67.337	0.100
399.500	-48.195	0.100
399.600	-60.873	0.100
399.700	-65.210	0.100
399.800	-64.664	0.100
399.900	-68.184	0.100
400.000	-58.834	0.100
400.100	-82.066	0.100
400.200	-54.960	0.100
400.300	-57.854	0.100
400.400	-62.527	0.100
400.500	-68.252	0.100
400.600	-61.938	0.100
400.700	-72.874	0.100
400.800	-67.088	0.100
400.900	-65.199	0.100
401.000	-66.000	0.100
401.100	-65.357	0.100
401.200	-66.365	0.100
401.300	-46.672	0.100
401.400	-69.333	0.100
401.500	-76.006	0.100
401.600	-65.221	0.100
401.700	-66.081	0.100
401.800	-64.195	0.100
401.900	-57.738	0.100
402.000	-64.475	0.100
402.100	-66.621	0.100
402.200	-45.072	0.100
402.300	-55.840	0.100
402.400	-63.044	0.100
402.500	-75.512	0.100
402.600	-69.245	0.100
402.700	-61.882	0.100
402.800	-80.768	0.100
402.900	-50.252	0.100
403.000	-72.332	0.100
403.100	-68.265	0.100
403.200	-55.381	0.100
403.300	-81.735	0.100
403.400	-59.560	0.100
403.500	-54.432	0.100
403.600	-55.489	0.100
403.700	-70.960	0.100
403.800	-71.766	0.100
403.900	-74.630	0.100
404.000	-71.916	0.100
404.100	-61.068	0.100
404.200	-59.763	0.100
404.300	-61.253	0.100
404.400	-62.965	0.100
404.500	-64.731	0.100
404.600	-66.897	0.100
404.700	-68.546	0.100
404.800	-78.792	0.100
404.900	-60.793	0.100
405.000	-64.238	0.100
405.100	-74.485	0.100
405.200	-63.897	0.100
405.300	-85.326	0.100
405.400	-75.020	0.100
405.500	-77.894	0.100
405.600	-56.994	0.100
405.700	-59.568	0.100
405.800	-83.054	0.100
405.900	-71.355	0.100
406.000	-62.126	0.100
406.100	-64.972	0.100
406.200	-64.279	0.100
406.300	-66.227	0.100
406.400	-65.877	0.100
406.500	-80.062	0.100
406.600	-57.851	0.100
406.700	-69.870	0.100
406.800	-65.731	0.100
406.900	-55.899	0.100
407.000	-58.002	0.100
407.100	-71.363	0.100
407.200	-66.102	0.100
407.300	-71.342	0.100
407.400	-73.105	0.100
407.500	-61.096	0.100
407.600	-59.989	0.100
407.700	-77.205	0.100
407.800	-62.070	0.100
407.900	-66.010	0.100
408.000	-74.391	0.100
408.100	-70.010	0.100
408.200	-67.000	0.100
408.300	-68.964	0.100
408.400	-66.071	0.100
408.500	-72.448	0.100
408.600	-79.705	0.100
408.700	-78.600	0.100
408.800	-56.091	0.100
408.900	-72.223	0.100
409.000	-83.758	0.100
409.100	-51.410	0.100
409.200	-70.890	0.100
409.300	-87.013	0.100
409.400	-60.401	0.100
409.500	-67.984	0.100
409.600	-74.137	0.100
409.700	-67.512	0.100
409.800	-66.165	0.100
409.900	-83.714	0.100
410.000	-72.958	0.100
410.100	-70.428	0.100
410.200	-82.989	0.100
410.300	-69.490	0.100
410.400	-81.841	0.100
410.500	-64.280	0.100
410.600	-77.169	0.100
410.700	-66.810	0.100
410.800	-82.300	0.100
410.900	-74.198	0.100
411.000	-76.059	0.100
411.100	-81.682	0.100
411.200	-62.295	0.100
411.300	-70.918	0.100
411.400	-69.260	0.100
411.500	-70.106	0.100
411.600	-86.978	0.100
411.700	-71.093	0.100
411.800	-74.221	0.100
411.900	-75.096	0.100
412.000	-72.140	0.100
412.100	-73.479	0.100
412.200	-67.047	0.100
412.300	-63.542	0.100
412.400	-59.397	0.100
412.500	-76.164	0.100
412.600	-77.218	0.100
412.700	-88.840	0.100
412.800	-76.900	0.100
412.900	-74.369	0.100
413.000	-64.985	0.100
413.100	-73.410	0.100
413.200	-60.059	0.100
413.300	-69.747	0.100
413.400	-93.121	0.100
413.500	-64.466	0.100
413.600	-72.299	0.100
413.700	-70.960	0.100
413.800	-84.829	0.100
413.900	-67.599	0.100
414.000	-75.831	0.100
414.100	-80.968	0.100
414.200	-76.236	0.100
414.300	-65.760	0.100
414.400	-69.086	0.100
414.500	-85.436	0.100
414.600	-68.623	0.100
414.700	-78.830	0.100
414.800	-68.410	0.100
414.900	-90.933	0.100
415.000	-79.001	0.100
415.100	-75.497	0.100
415.200	-63.877	0.100
415.300	-82.435	0.100
415.400	-70.109	0.100
415.500	-69.556	0.100
415.600	-77.494	0.100
415.700	-77.437	0.100
415.800	-79.951	0.100
415.900	-72.355	0.100
416.000	-72.370	0.100
416.100	-86.039	0.100
416.200	-78.876	0.100
416.300	-75.691	0.100
416.400	-79.357	0.100
416.500	-78.338	0.100
416.600	-64.065	0.100
416.700	-89.702	0.100
416.800	-84.778	0.100
416.900	-87.195	0.100
417.000	-80.761	0.100
417.100	-77.765	0.100
417.200	-61.194	0.100
417.300	-85.242	0.100
417.400	-71.045	0.100
417.500	-87.028	0.100
417.600	-69.051	0.100
417.700	-71.729	0.100
417.800	-84.074	0.100
417.900	-83.242	0.100
418.000	-71.342	0.100
418.100	-78.429	0.100
418.200	-70.193	0.100
418.300	-76.529	0.100
418.400	-84.779	0.100
418.500	-63.723	0.100
418.600	-77.978	0.100
418.700	-87.349	0.100
418.800	-75.561	0.100
418.900	-79.260	0.100
419.000	-79.714	0.100
419.100	-71.646	0.100
419.200	-74.050	0.100
419.300	-79.952	0.100
419.400	-86.486	0.100
419.500	-86.677	0.100
419.600	-79.722	0.100
419.700	-79.683	0.100
419.800	-68.750	0.100
419.900	-76.399	0.100
420.000	-90.850	0.100
420.100	-77.544	0.100
420.200	-78.483	0.100
420.300	-70.289	0.100
420.400	-92.806	0.100
420.500	-74.475	0.100
420.600	-64.562	0.100
420.700	-87.080	0.100
420.800	-65.033	0.100
420.900	-83.714	0.100
421.000	-84.536	0.100
421.100	-67.030	0.100
421.200	-81.593	0.100
421.300	-86.627	0.100
421.400	-75.298	0.100
421.500	-89.695	0.100
421.600	-81.651	0.100
421.700	-88.642	0.100
421.800	-86.955	0.100
421.900	-81.443	0.100
422.000	-89.910	0.100
422.100	-81.147	0.100
422.200	-74.225	0.100
422.300	-73.554	0.100
422.400	-80.380	0.100
422.500	-84.791	0.100
422.600	-66.548	0.100
422.700	-92.581	0.100
422.800	-62.278	0.100
422.900	-86.091	0.100
423.000	-86.871	0.100
423.100	-78.832	0.100
423.200	-82.530	0.100
423.300	-85.756	0.100
423.400	-76.642	0.100
423.500	-80.862	0.100
423.600	-85.190	0.100
423.700	-83.083	0.100
423.800	-91.891	0.100
423.900	-85.842	0.100
424.000	-77.677	0.100
424.100	-74.766	0.100
424.200	-81.233	0.100
424.300	-84.135	0.100
424.400	-97.586	0.100
424.500	-82.568	0.100
424.600	-74.581	0.100
424.700	-92.392	0.100
424.800	-90.042	0.100
424.900	-78.172	0.100
425.000	-67.389	0.100
425.100	-84.560	0.100
425.200	-83.105	0.100
425.300	-71.472	0.100
425.400	-85.315	0.100
425.500	-81.280	0.100
425.600	-89.702	0.100
425.700	-81.222	0.100
425.800	-78.808	0.100
425.900	-84.224	0.100
426.000	-87.224	0.100
426.100	-70.260	0.100
426.200	-76.473	0.100
426.300	-107.654	0.100
426.400	-77.901	0.100
426.500	-72.080	0.100
426.600	-82.393	0.100
426.700	-90.643	0.100
426.800	-95.967	0.100
426.900	-81.413	0.100
427.000	-86.316	0.100
427.100	-81.280	0.100
427.200	-99.814	0.100
427.300	-98.884	0.100
427.400	-79.794	0.100
427.500	-95.116	0.100
427.600	-68.459	0.100
427.700	-81.873	0.100
427.800	-87.586	0.100
427.900	-87.607	0.100
428.000	-89.459	0.100
428.100	-80.211	0.100
428.200	-82.585	0.100
428.300	-112.102	0.100
428.400	-85.023	0.100
428.500	-73.891	0.100
428.600	-82.455	0.100
428.700	-84.925	0.100
428.800	-86.106	0.100
428.900	-72.346	0.100
429.000	-81.873	0.100
429.100	-78.093	0.100
429.200	-93.944	0.100
429.300	-94.012	0.100
429.400	-69.614	0.100
429.500	-74.166	0.100
429.600	-92.107	0.100
429.700	-85.172	0.100
429.800	-96.976	0.100
429.900	-89.970	0.100
430.000	-96.172	0.100
430.100	-81.471	0.100
430.200	-85.313	0.100
430.300	-69.565	0.100
430.400	-75.355	0.100
430.500	-89.106	0.100
430.600	-78.651	0.100
430.700	-81.193	0.100
430.800	-85.113	0.100
430.900	-84.573	0.100
431.000	-88.915	0.100
431.100	-87.898	0.100
431.200	-81.508	0.100
431.300	-75.824	0.100
431.400	-101.921	0.100
431.500	-88.700	0.100
431.600	-90.680	0.100
431.700	-82.817	0.100
431.800	-74.043	0.100
431.900	-79.399	0.100
432.000	-88.447	0.100
432.100	-90.197	0.100
432.200	-86.325	0.100
432.300	-92.944	0.100
432.400	-79.836	0.100
432.500	-84.260	0.100
432.600	-94.233	0.100
432.700	-94.133	0.100
432.800	-77.719	0.100
432.900	-87.263	0.100
433.000	-73.287	0.100
433.100	-92.369	0.100
433.200	-89.024	0.100
433.300	-84.745	0.100
433.400	-70.807	0.100
433.500	-80.137	0.100
433.600	-75.625	0.100
433.700	-83.579	0.100
433.800	-87.284	0.100
433.900	-76.968	0.100
434.000	-92.567	0.100
434.100	-91.307	0.100
434.200	-77.306	0.100
434.300	-104.175	0.100
434.400	-84.150	0.100
434.500	-72.798	0.100
434.600	-75.294	0.100
434.700	-79.449	0.100
434.800	-94.725	0.100
434.900	-81.175	0.100
435.000	-84.610	0.100
435.100	-92.470	0.100
435.200	-81.881	0.100
435.300	-92.119	0.100
435.400	-87.579	0.100
435.500	-83.422	0.100
435.600	-72.825	0.100
435.700	-94.679	0.100
435.800	-91.759	0.100
435.900	-81.285	0.100
436.000	-86.517	0.100
436.100	-96.289	0.100
436.200	-89.953	0.100
436.300	-88.301	0.100
436.400	-89.968	0.100
436.500	-104.690	0.100
436.600	-88.294	0.100
436.700	-105.146	0.100
436.800	-81.060	0.100
436.900	-79.284	0.100
437.000	-74.647	0.100
437.100	-92.213	0.100
437.200	-91.089	0.100
437.300	-96.384	0.100
437.400	-71.927	0.100
437.500	-74.208	0.100
437.600	-86.145	0.100
437.700	-84.131	0.100
437.800	-98.917	0.100
437.900	-96.642	0.100
438.000	-95.769	0.100
438.100	-76.434	0.100
438.200	-96.065	0.100
438.300	-91.972	0.100
438.400	-88.368	0.100
438.500	-67.020	0.100
438.600	-80.012	0.100
438.700	-88.237	0.100
438.800	-93.922	0.100
438.900	-78.043	0.100
439.000	-80.407	0.100
439.100	-78.637	0.100
439.200	-84.450	0.100
439.300	-95.885	0.100
439.400	-94.949	0.100
439.500	-90.113	0.100
439.600	-75.392	0.100
439.700	-92.338	0.100
439.800	-96.923	0.100
439.900	-81.325	0.100
440.000	-85.418	0.100
440.100	-77.008	0.100
440.200	-83.730	0.100
440.300	-98.545	0.100
440.400	-81.250	0.100
440.500	-90.547	0.100
440.600	-91.519	0.100
440.700	-105.182	0.100
440.800	-76.658	0.100
440.900	-102.698	0.100
441.000	-89.025	0.100
441.100	-70.431	0.100
441.200	-78.648	0.100
441.300	-93.342	0.100
441.400	-92.774	0.100
441.500	-78.211	0.100
441.600	-74.812	0.100
441.700	-100.826	0.100
441.800	-83.714	0.100
441.900	-75.904	0.100
442.000	-106.208	0.100
442.100	-80.347	0.100
442.200	-88.659	0.100
442.300	-86.303	0.100
442.400	-90.443	0.100
442.500	-93.978	0.100
442.600	-76.472	0.100
442.700	-82.402	0.100
442.800	-95.598	0.100
442.900	-79.600	0.100
443.000	-82.538	0.100
443.100	-91.838	0.100
443.200	-92.852	0.100
443.300	-95.423	0.100
443.400	-84.174	0.100
443.500	-106.814	0.100
443.600	-83.582	0.100
443.700	-73.909	0.100
443.800	-93.250	0.100
443.900	-84.423	0.100
444.000	-80.196	0.100
444.100	-91.748	0.100
444.200	-94.835	0.100
444.300	-80.665	0.100
444.400	-103.299	0.100
444.500	-91.931	0.100
444.600	-83.356	0.100
444.700	-71.101	0.100
444.800	-84.451	0.100
444.900	-86.197	0.100
445.000	-80.414	0.100
445.100	-83.225	0.100
445.200	-95.265	0.100
445.300	-92.225	0.100
445.400	-87.876	0.100
445.500	-89.914	0.100
445.600	-95.267	0.100
445.700	-84.971	0.100
445.800	-79.880	0.100
445.900	-88.489	0.100
446.000	-88.331	0.100
446.100	-93.274	0.100
446.200	-105.374	0.100
446.300	-86.493	0.100
446.400	-81.586	0.100
446.500	-88.949	0.100
446.600	-76.131	0.100
446.700	-85.066	0.100
446.800	-92.493	0.100
446.900	-92.832	0.100
447.000	-91.849	0.100
447.100	-89.071	0.100
447.200	-85.020	0.100
447.300	-95.298	0.100
447.400	-98.399	0.100
447.500	-84.061	0.100
447.600	-85.643	0.100
447.700	-98.429	0.100
447.800	-80.082	0.100
447.900	-95.886	0.100
448.000	-82.027	0.100
448.100	-82.131	0.100
448.200	-82.710	0.100
448.300	-84.937	0.100
448.400	-88.887	0.100
448.500	-96.052	0.100
448.600	-90.476	0.100
448.700	-86.885	0.100
448.800	-76.335	0.100
448.900	-83.114	0.100
449.000	-96.316	0.100
449.100	-97.597	0.100
449.200	-92.624	0.100
449.300	-83.637	0.100
449.400	-87.507	0.100
449.500	-90.576	0.100
449.600	-99.221	0.100
449.700	-80.297	0.100
449.800	-89.414	0.100
449.900	-91.984	0.100
450.000	-74.770	0.100
450.100	-80.865	0.100
450.200	-101.135	0.100
450.300	-88.259	0.100
450.400	-84.197	0.100
450.500	-84.990	0.100
450.600	-88.738	0.100
450.700	-100.413	0.100
450.800	-100.805	0.100
450.900	-80.245	0.100
451.000	-89.595	0.100
451.100	-95.905	0.100
451.200	-93.641	0.100
451.300	-98.213	0.100
451.400	-81.504	0.100
451.500	-105.408	0.100
451.600	-94.987	0.100
451.700	-74.909	0.100
451.800	-90.486	0.100
451.900	-96.851	0.100
452.000	-85.925	0.100
452.100	-80.454	0.100
452.200	-90.319	0.100
452.300	-101.926	0.100
452.400	-87.291	0.100
452.500	-74.328	0.100
452.600	-74.855	0.100
452.700	-90.288	0.100
452.800	-98.004	0.100
452.900	-89.626	0.100
453.000	-88.212	0.100
453.100	-75.515	0.100
453.200	-102.708	0.100
453.300	-81.645	0.100
453.400	-104.130	0.100
453.500	-78.593	0.100
453.600	-79.368	0.100
453.700	-86.150	0.100
453.800	-80.625	0.100
453.900	-102.747	0.100
454.000	-97.650	0.100
454.100	-67.174	0.100
454.200	-85.701	0.100
454.300	-90.348	0.100
454.400	-82.473	0.100
454.500	-101.766	0.100
454.600	-93.519	0.100
454.700	-91.487	0.100
454.800	-69.544	0.100
454.900	-89.738	0.100
455.000	-89.142	0.100
455.100	-90.079	0.100
455.200	-97.536	0.100
455.300	-103.230	0.100
455.400	-94.225	0.100
455.500	-79.313	0.100
455.600	-90.501	0.100
455.700	-101.608	0.100
455.800	-73.650	0.100
455.900	-105.366	0.100
456.000	-94.044	0.100
456.100	-84.964	0.100
456.200	-91.280	0.100
456.300	-98.259	0.100
456.400	-85.305	0.100
456.500	-79.294	0.100
456.600	-93.411	0.100
456.700	-72.101	0.100
456.800	-89.248	0.100
456.900	-77.886	0.100
457.000	-83.075	0.100
457.100	-83.107	0.100
457.200	-88.543	0.100
457.300	-90.468	0.100
457.400	-94.619	0.100
457.500	-88.970	0.100
457.600	-92.976	0.100
457.700	-92.381	0.100
457.800	-103.123	0.100
457.900	-87.544	0.100
458.000	-92.341	0.100
458.100	-91.478	0.100
458.200	-92.673	0.100
458.300	-92.315	0.100
458.400	-95.809	0.100
458.500	-95.534	0.100
458.600	-81.241	0.100
458.700	-87.561	0.100
458.800	-88.885	0.100
458.900	-83.379	0.100
459.000	-78.994	0.100
459.100	-99.961	0.100
459.200	-91.314	0.100
459.300	-89.235	0.100
459.400	-78.840	0.100
459.500	-91.478	0.100
459.600	-77.294	0.100
459.700	-90.883	0.100
459.800	-109.760	0.100
459.900	-83.784	0.100
460.000	-86.514	0.100
460.100	-91.586	0.100
460.200	-85.390	0.100
460.300	-79.665	0.100
460.400	-86.466	0.100
460.500	-98.747	0.100
460.600	-82.078	0.100
460.700	-76.315	0.100
460.800	-94.183	0.100
460.900	-94.807	0.100
461.000	-90.607	0.100
461.100	-81.133	0.100
461.200	-90.189	0.100
461.300	-98.332	0.100
461.400	-71.886	0.100
461.500	-92.796	0.100
461.600	-84.592	0.100
461.700	-91.393	0.100
461.800	-92.435	0.100
461.900	-78.594	0.100
462.000	-89.035	0.100
462.100	-86.798	0.100
462.200	-95.805	0.100
462.300	-90.101	0.100
462.400	-88.322	0.100
462.500	-76.881	0.100
462.600	-78.916	0.100
462.700	-81.601	0.100
462.800	-88.559	0.100
462.900	-85.472	0.100
463.000	-103.473	0.100
463.100	-88.019	0.100
463.200	-96.219	0.100
463.300	-87.393	0.100
463.400	-80.066	0.100
463.500	-92.614	0.100
463.600	-90.036	0.100
463.700	-79.291	0.100
463.800	-83.303	0.100
463.900	-89.120	0.100
464.000	-81.407	0.100
464.100	-88.605	0.100
464.200	-100.477	0.100
464.300	-84.955	0.100
464.400	-103.626	0.100
464.500	-89.402	0.100
464.600	-84.122	0.100
464.700	-84.170	0.100
464.800	-85.411	0.100
464.900	-96.677	0.100
465.000	-93.182	0.100
465.100	-79.080	0.100
465.200	-85.683	0.100
465.300	-96.361	0.100
465.400	-87.919	0.100
465.500	-85.031	0.100
465.600	-86.314	0.100
465.700	-89.646	0.100
465.800	-81.005	0.100
465.900	-81.234	0.100
466.000	-76.113	0.100
466.100	-99.057	0.100
466.200	-100.782	0.100
466.300	-98.496	0.100
466.400	-94.506	0.100
466.500	-91.279	0.100
466.600	-98.746	0.100
466.700	-76.714	0.100
466.800	-79.298	0.100
466.900	-89.243	0.100
467.000	-81.263	0.100
467.100	-83.931	0.100
467.200	-81.507	0.100
467.300	-83.211	0.100
467.400	-86.114	0.100
467.500	-87.544	0.100
467.600	-82.500	0.100
467.700	-84.835	0.100
467.800	-104.447	0.100
467.900	-78.228	0.100
468.000	-89.997	0.100
468.100	-90.094	0.100
468.200	-94.435	0.100
468.300	-82.476	0.100
468.400	-81.503	0.100
468.500	-97.076	0.100
468.600	-72.099	0.100
468.700	-87.777	0.100
468.800	-101.048	0.100
468.900	-84.119	0.100
469.000	-87.117	0.100
469.100	-100.055	0.100
469.200	-73.629	0.100
469.300	-94.882	0.100
469.400	-93.631	0.100
469.500	-89.956	0.100
469.600	-90.551	0.100
469.700	-92.003	0.100
469.800	-97.482	0.100
469.900	-95.487	0.100
470.000	-79.759	0.100
470.100	-79.510	0.100
470.200	-95.337	0.100
470.300	-90.825	0.100
470.400	-81.822	0.100
470.500	-88.358	0.100
470.600	-87.416	0.100
470.700	-80.766	0.100
470.800	-81.578	0.100
470.900	-94.585	0.100
471.000	-80.198	0.100
471.100	-92.202	0.100
471.200	-72.257	0.100
471.300	-90.460	0.100
471.400	-88.808	0.100
471.500	-101.375	0.100
471.600	-87.171	0.100
471.700	-87.989	0.100
471.800	-86.741	0.100
471.900	-86.270	0.100
472.000	-86.442	0.100
472.100	-80.255	0.100
472.200	-77.161	0.100
472.300	-90.143	0.100
472.400	-96.839	0.100
472.500	-89.475	0.100
472.600	-104.461	0.100
472.700	-87.581	0.100
472.800	-90.839	0.100
472.900	-95.665	0.100
473.000	-89.171	0.100
473.100	-78.655	0.100
473.200	-89.134	0.100
473.300	-80.195	0.100
473.400	-94.761	0.100
473.500	-80.221	0.100
473.600	-86.742	0.100
473.700	-77.438	0.100
473.800	-73.899	0.100
473.900	-74.340	0.100
474.000	-87.926	0.100
474.100	-71.625	0.100
474.200	-83.403	0.100
474.300	-89.651	0.100
474.400	-80.941	0.100
474.500	-81.087	0.100
474.600	-85.868	0.100
474.700	-84.880	0.100
474.800	-90.456	0.100
474.900	-99.180	0.100
475.000	-101.793	0.100
475.100	-87.193	0.100
475.200	-85.152	0.100
475.300	-108.165	0.100
475.400	-84.582	0.100
475.500	-91.706	0.100
475.600	-84.026	0.100
475.700	-88.912	0.100
475.800	-100.994	0.100
475.900	-101.352	0.100
476.000	-83.883	0.100
476.100	-91.157	0.100
476.200	-84.282	0.100
476.300	-86.348	0.100
476.400	-81.234	0.100
476.500	-83.411	0.100
476.600	-84.910	0.100
476.700	-84.768	0.100
476.800	-75.158	0.100
476.900	-93.538	0.100
477.000	-103.895	0.100
477.100	-100.917	0.100
477.200	-76.860	0.100
477.300	-85.042	0.100
477.400	-85.468	0.100
477.500	-76.696	0.100
477.600	-97.230	0.100
477.700	-81.787	0.100
477.800	-78.293	0.100
477.900	-92.101	0.100
478.000	-84.243	0.100
478.100	-82.636	0.100
478.200	-102.146	0.100
478.300	-76.350	0.100
478.400	-84.823	0.100
478.500	-80.558	0.100
478.600	-99.540	0.100
478.700	-101.096	0.100
478.800	-82.815	0.100
478.900	-87.391	0.100
479.000	-70.873	0.100
479.100	-89.297	0.100
479.200	-85.274	0.100
479.300	-96.819	0.100
479.400	-84.257	0.100
479.500	-78.459	0.100
479.600	-91.750	0.100
479.700	-98.954	0.100
479.800	-80.063	0.100
479.900	-88.096	0.100
480.000	-88.177	0.100
480.100	-81.075	0.100
480.200	-87.784	0.100
480.300	-88.264	0.100
480.400	-75.795	0.100
480.500	-95.628	0.100
480.600	-86.185	0.100
480.700	-64.224	0.100
480.800	-75.185	0.100
480.900	-102.569	0.100
481.000	-72.243	0.100
481.100	-84.977	0.100
481.200	-99.924	0.100
481.300	-83.517	0.100
481.400	-74.371	0.100
481.500	-89.299	0.100
481.600	-74.495	0.100
481.700	-91.060	0.100
481.800	-80.755	0.100
481.900	-82.978	0.100
482.000	-74.040	0.100
482.100	-66.055	0.100
482.200	-83.574	0.100
482.300	-93.008	0.100
482.400	-71.224	0.100
482.500	-78.846	0.100
482.600	-79.222	0.100
482.700	-72.097	0.100
482.800	-70.040	0.100
482.900	-71.568	0.100
483.000	-76.048	0.100
483.100	-81.152	0.100
483.200	-56.919	0.100
483.300	-79.760	0.100
483.400	-77.489	0.100
483.500	-67.512	0.100
483.600	-65.468	0.100
483.700	-78.609	0.100
483.800	-82.249	0.100
483.900	-78.894	0.100
484.000	-69.895	0.100
484.100	-66.981	0.100
484.200	-88.139	0.100
484.300	-69.356	0.100
484.400	-71.391	0.100
484.500	-83.116	0.100
484.600	-63.546	0.100
484.700	-71.519	0.100
484.800	-69.299	0.100
484.900	-62.202	0.100
485.000	-72.628	0.100
485.100	-66.607	0.100
485.200	-67.453	0.100
485.300	-83.350	0.100
485.400	-75.115	0.100
485.500	-64.562	0.100
485.600	-65.752	0.100
485.700	-56.233	0.100
485.800	-68.244	0.100
485.900	-66.665	0.100
486.000	-55.324	0.100
486.100	-73.108	0.100
486.200	-70.794	0.100
486.300	-62.090	0.100
486.400	-59.982	0.100
486.500	-55.953	0.100
486.600	-55.703	0.100
486.700	-75.427	0.100
486.800	-76.020	0.100
486.900	-79.219	0.100
487.000	-63.098	0.100
487.100	-62.516	0.100
487.200	-69.287	0.100
487.300	-56.999	0.100
487.400	-76.162	0.100
487.500	-66.347	0.100
487.600	-71.702	0.100
487.700	-70.576	0.100
487.800	-69.673	0.100
487.900	-62.948	0.100
488.000	-64.973	0.100
488.100	-68.288	0.100
488.200	-62.650	0.100
488.300	-59.951	0.100
488.400	-61.889	0.100
488.500	-74.139	0.100
488.600	-53.190	0.100
488.700	-55.681	0.100
488.800	-62.795	0.100
488.900	-59.316	0.100
489.000	-65.475	0.100
489.100	-58.519	0.100
489.200	-68.258	0.100
489.300	-64.200	0.100
489.400	-66.082	0.100
489.500	-62.948	0.100
489.600	-54.564	0.100
489.700	-62.322	0.100
489.800	-67.461	0.100
489.900	-58.031	0.100
490.000	-58.761	0.100
490.100	-61.622	0.100
490.200	-63.289	0.100
490.300	-51.816	0.100
490.400	-46.587	0.100
490.500	-57.841	0.100
490.600	-73.206	0.100
490.700	-52.165	0.100
490.800	-54.588	0.100
490.900	-55.628	0.100
491.000	-64.127	0.100
491.100	-71.296	0.100
491.200	-63.399	0.100
491.300	-50.589	0.100
491.400	-59.228	0.100
491.500	-48.749	0.100
491.600	-58.972	0.100
491.700	-55.345	0.100
491.800	-52.807	0.100
491.900	-47.977	0.100
492.000	-66.073	0.100
492.100	-52.945	0.100
492.200	-40.224	0.100
492.300	-65.407	0.100
492.400	-42.185	0.100
492.500	-48.263	0.100
492.600	-43.003	0.100
492.700	-64.024	0.100
492.800	-54.485	0.100
492.900	-55.088	0.100
493.000	-63.443	0.100
493.100	-49.210	0.100
493.200	-55.626	0.100
493.300	-56.137	0.100
493.400	-49.375	0.100
493.500	-52.945	0.100
493.600	-48.367	0.100
493.700	-42.143	0.100
493.800	-69.654	0.100
493.900	-53.793	0.100
494.000	-61.003	0.100
494.100	-42.617	0.100
494.200	-55.829	0.100
494.300	-50.484	0.100
494.400	-61.354	0.100
494.500	-54.913	0.100
494.600	-48.603	0.100
494.700	-47.908	0.100
494.800	-43.757	0.100
494.900	-56.303	0.100
495.000	-61.637	0.100
495.100	-65.466	0.100
495.200	-41.361	0.100
495.300	-54.231	0.100
495.400	-36.472	0.100
495.500	-40.761	0.100
495.600	-52.391	0.100
495.700	-49.140	0.100
495.800	-54.956	0.100
495.900	-55.111	0.100
496.000	-43.154	0.100
496.100	-63.117	0.100
496.200	-57.283	0.100
496.300	-60.990	0.100
496.400	-42.432	0.100
496.500	-53.476	0.100
496.600	-40.130	0.100
496.700	-45.493	0.100
496.800	-62.084	0.100
496.900	-36.678	0.100
497.000	-69.654	0.100
497.100	-35.963	0.100
497.200	-55.200	0.100
497.300	-54.101	0.100
497.400	-58.129	0.100
497.500	-52.586	0.100
497.600	-34.600	0.100
497.700	-42.210	0.100
497.800	-53.942	0.100
497.900	-58.395	0.100
498.000	-53.061	0.100
498.100	-44.780	0.100
498.200	-44.206	0.100
498.300	-50.253	0.100
498.400	-37.443	0.100
498.500	-48.934	0.100
498.600	-58.504	0.100
498.700	-35.006	0.100
498.800	-67.405	0.100
498.900	-53.104	0.100
499.000	-56.586	0.100
499.100	-29.105	0.100
499.200	-42.137	0.100
499.300	-52.629	0.100
499.400	-57.024	0.100
499.500	-33.450	0.100
499.600	-59.256	0.100
499.700	-60.182	0.100
499.800	-52.463	0.100
499.900	-25.410	0.100
500.000	-42.006	0.100
500.100	-56.272	0.100
500.200	-42.351	0.100
500.300	-44.842	0.100
500.400	-63.662	0.100
500.500	-39.382	0.100
500.600	-40.601	0.100
500.700	-43.465	0.100
500.800	-50.210	0.100
500.900	-46.451	0.100
501.000	-47.138	0.100
501.100	-45.701	0.100
501.200	-48.430	0.100
501.300	-28.850	0.100
501.400	-50.664	0.100
501.500	-41.155	0.100
501.600	-45.782	0.100
501.700	-54.665	0.100
501.800	-39.761	0.100
501.900	-45.237	0.100
502.000	-58.628	0.100
502.100	-38.318	0.100
502.200	-61.406	0.100
502.300	-43.115	0.100
502.400	-42.358	0.100
502.500	-29.721	0.100
502.600	-38.644	0.100
502.700	-33.538	0.100
502.800	-40.471	0.100
502.900	-55.721	0.100
503.000	-46.646	0.100
503.100	-25.870	0.100
503.200	-37.389	0.100
503.300	-35.350	0.100
503.400	-42.400	0.100
503.500	-41.588	0.100
503.600	-55.474	0.100
503.700	-49.413	0.100
503.800	-39.890	0.100
503.900	-43.483	0.100
504.000	-50.207	0.100
504.100	-35.852	0.100
504.200	-51.726	0.100
504.300	-43.421	0.100
504.400	-40.931	0.100
504.500	-40.320	0.100
504.600	-32.136	0.100
504.700	-42.881	0.100
504.800	-28.242	0.100
504.900	-46.431	0.100
505.000	-38.575	0.100
505.100	-55.432	0.100
505.200	-35.779	0.100
505.300	-46.581	0.100
505.400	-53.709	0.100
505.500	-24.419	0.100
505.600	-39.322	0.100
505.700	-39.509	0.100
505.800	-35.542	0.100
505.900	-43.463	0.100
506.000	-38.754	0.100
506.100	-34.476	0.100
506.200	-47.283	0.100
506.300	-45.699	0.100
506.400	-40.448	0.100
506.500	-24.950	0.100
506.600	-46.350	0.100
506.700	-33.271	0.100
506.800	-40.141	0.100
506.900	-44.592	0.100
507.000	-37.125	0.100
507.100	-37.568	0.100
507.200	-54.258	0.100
507.300	-25.615	0.100
507.400	-46.202	0.100
507.500	-53.499	0.100
507.600	-39.867	0.100
507.700	-46.911	0.100
507.800	-33.286	0.100
507.900	-29.448	0.100
508.000	-42.225	0.100
508.100	-30.156	0.100
508.200	-38.133	0.100
508.300	-51.505	0.100
508.400	-42.775	0.100
508.500	-38.073	0.100
508.600	-48.168	0.100
508.700	-39.222	0.100
508.800	-44.049	0.100
508.900	-48.786	0.100
509.000	-35.061	0.100
509.100	-45.437	0.100
509.200	-34.497	0.100
509.300	-37.815	0.100
509.400	-34.233	0.100
509.500	-35.251	0.100
509.600	-48.424	0.100
509.700	-32.720	0.100
509.800	-33.744	0.100
509.900	-35.060	0.100
510.000	-40.496	0.100
510.100	-33.421	0.100
510.200	-39.846	0.100
510.300	-33.850	0.100
510.400	-45.478	0.100
510.500	-38.021	0.100
510.600	-41.905	0.100
510.700	-29.562	0.100
510.800	-34.791	0.100
510.900	-34.221	0.100
511.000	-36.065	0.100
511.100	-51.744	0.100
511.200	-38.892	0.100
511.300	-34.641	0.100
511.400	-26.108	0.100
511.500	-34.233	0.100
511.600	-54.994	0.100
511.700	-37.923	0.100
511.800	-39.659	0.100
511.900	-37.219	0.100
512.000	-39.002	0.100
512.100	-27.637	0.100
512.200	-33.997	0.100
512.300	-30.063	0.100
512.400	-40.276	0.100
512.500	-43.072	0.100
512.600	-34.706	0.100
512.700	-41.272	0.100
512.800	-41.211	0.100
512.900	-37.939	0.100
513.000	-42.813	0.100
513.100	-33.043	0.100
513.200	-36.899	0.100
513.300	-33.505	0.100
513.400	-45.828	0.100
513.500	-36.286	0.100
513.600	-35.572	0.100
513.700	-38.805	0.100
513.800	-51.074	0.100
513.900	-13.992	0.100
514.000	-40.125	0.100
514.100	-42.922	0.100
514.200	-27.402	0.100
514.300	-31.371	0.100
514.400	-29.427	0.100
514.500	-33.401	0.100
514.600	-33.491	0.100
514.700	-42.713	0.100
514.800	-34.232	0.100
514.900	-46.797	0.100
515.000	-34.032	0.100
515.100	-38.336	0.100
515.200	-30.501	0.100
515.300	-32.775	0.100
515.400	-42.998	0.100
515.500	-48.522	0.100
515.600	-33.788	0.100
515.700	-47.376	0.100
515.800	-39.832	0.100
515.900	-40.218	0.100
516.000	-32.555	0.100
516.100	-24.670	0.100
516.200	-27.558	0.100
516.300	-39.589	0.100
516.400	-28.604	0.100
516.500	-34.022	0.100
516.600	-28.853	0.100
516.700	-46.042	0.100
516.800	-36.945	0.100
516.900	-36.837	0.100
517.000	-35.309	0.100
517.100	-27.049	0.100
517.200	-43.810	0.100
517.300	-34.447	0.100
517.400	-40.706	0.100
517.500	-24.174	0.100
517.600	-31.479	0.100
517.700	-20.552	0.100
517.800	-41.180	0.100
517.900	-30.860	0.100
518.000	-39.737	0.100
518.100	-40.360	0.100
518.200	-30.315	0.100
518.300	-33.321	0.100
518.400	-25.090	0.100
518.500	-35.840	0.100
518.600	-16.175	0.100
518.700	-39.777	0.100
518.800	-42.064	0.100
518.900	-42.992	0.100
519.000	-41.437	0.100
519.100	-24.862	0.100
519.200	-28.498	0.100
519.300	-40.641	0.100
519.400	-44.480	0.100
519.500	-51.424	0.100
519.600	-52.686	0.100
519.700	-24.294	0.100
519.800	-45.536	0.100
519.900	-50.551	0.100
520.000	-30.817	0.100
520.100	-28.807	0.100
520.200	-33.548	0.100
520.300	-39.629	0.100
520.400	-39.990	0.100
520.500	-25.925	0.100
520.600	-41.504	0.100
520.700	-25.751	0.100
520.800	-42.114	0.100
520.900	-38.121	0.100
521.000	-32.385	0.100
521.100	-46.772	0.100
521.200	-32.121	0.100
521.300	-23.589	0.100
521.400	-39.300	0.100
521.500	-35.400	0.100
521.600	-22.374	0.100
521.700	-49.716	0.100
521.800	-25.947	0.100
521.900	-28.483	0.100
522.000	-37.611	0.100
522.100	-29.353	0.100
522.200	-44.286	0.100
522.300	-35.240	0.100
522.400	-39.256	0.100
522.500	-21.649	0.100
522.600	-31.933	0.100
522.700	-33.611	0.100
522.800	-35.320	0.100
522.900	-46.925	0.100
523.000	-36.652	0.100
523.100	-39.730	0.100
523.200	-24.634	0.100
523.300	-28.762	0.100
523.400	-36.955	0.100
523.500	-37.488	0.100
523.600	-42.973	0.100
523.700	-36.716	0.100
523.800	-39.567	0.100
523.900	-29.088	0.100
524.000	-31.805	0.100
524.100	-32.921	0.100
524.200	-30.664	0.100
524.300	-27.390	0.100
524.400	-35.319	0.100
524.500	-44.614	0.100
524.600	-44.520	0.100
524.700	-26.612	0.100
524.800	-39.664	0.100
524.900	-34.417	0.100
525.000	-21.721	0.100
525.100	-31.204	0.100
525.200	-27.649	0.100
525.300	-36.935	0.100
525.400	-34.431	0.100
525.500	-39.322	0.100
525.600	-34.856	0.100
525.700	-41.383	0.100
525.800	-36.255	0.100
525.900	-37.723	0.100
526.000	-27.533	0.100
526.100	-25.066	0.100
526.200	-37.705	0.100
526.300	-34.197	0.100
526.400	-27.917	0.100
526.500	-35.043	0.100
526.600	-19.515	0.100
526.700	-44.225	0.100
526.800	-35.325	0.100
526.900	-41.007	0.100
527.000	-37.179	0.100
527.100	-47.231	0.100
527.200	-26.480	0.100
527.300	-32.129	0.100
527.400	-38.809	0.100
527.500	-36.885	0.100
527.600	-44.247	0.100
527.700	-37.978	0.100
527.800	-32.551	0.100
527.900	-34.963	0.100
528.000	-34.849	0.100
528.100	-32.206	0.100
528.200	-34.125	0.100
528.300	-42.933	0.100
528.400	-37.291	0.100
528.500	-35.484	0.100
528.600	-27.865	0.100
528.700	-30.908	0.100
528.800	-38.166	0.100
528.900	-36.276	0.100
529.000	-40.923	0.100
529.100	-47.168	0.100
529.200	-44.202	0.100
529.300	-26.451	0.100
529.400	-45.867	0.100
529.500	-44.380	0.100
529.600	-40.200	0.100
529.700	-17.913	0.100
529.800	-35.566	0.100
529.900	-31.563	0.100
530.000	-50.114	0.100
530.100	-39.807	0.100
530.200	-36.220	0.100
530.300	-25.119	0.100
530.400	-30.285	0.100
530.500	-27.128	0.100
530.600	-34.164	0.100
530.700	-39.665	0.100
530.800	-33.567	0.100
530.900	-30.603	0.100
531.000	-41.742	0.100
531.100	-28.210	0.100
531.200	-44.112	0.100
531.300	-34.033	0.100
531.400	-32.227	0.100
531.500	-32.979	0.100
531.600	-32.433	0.100
531.700	-42.195	0.100
531.800	-38.878	0.100
531.900	-29.367	0.100
532.000	-39.931	0.100
532.100	-35.799	0.100
532.200	-60.768	0.100
532.300	-27.905	0.100
532.400	-26.272	0.100
532.500	-18.159	0.100
532.600	-44.369	0.100
532.700	-41.876	0.100
532.800	-30.758	0.100
532.900	-32.629	0.100
533.000	-42.222	0.100
533.100	-40.400	0.100
533.200	-42.299	0.100
533.300	-38.234	0.100
533.400	-41.593	0.100
533.500	-36.453	0.100
533.600	-42.565	0.100
533.700	-32.890	0.100
533.800	-34.558	0.100
533.900	-39.866	0.100
534.000	-28.834	0.100
534.100	-37.547	0.100
534.200	-30.653	0.100
534.300	-30.819	0.100
534.400	-40.318	0.100
534.500	-28.545	0.100
534.600	-33.503	0.100
534.700	-38.981	0.100
534.800	-37.180	0.100
534.900	-41.580	0.100
535.000	-24.980	0.100
535.100	-40.117	0.100
535.200	-31.245	0.100
535.300	-33.047	0.100
535.400	-51.774	0.100
535.500	-39.184	0.100
535.600	-37.245	0.100
535.700	-19.109	0.100
535.800	-39.167	0.100
535.900	-31.120	0.100
536.000	-38.701	0.100
536.100	-30.842	0.100
536.200	-38.092	0.100
536.300	-19.698	0.100
536.400	-45.549	0.100
536.500	-39.278	0.100
536.600	-30.336	0.100
536.700	-26.228	0.100
536.800	-40.276	0.100
536.900	-35.612	0.100
537.000	-44.173	0.100
537.100	-39.744	0.100
537.200	-38.735	0.100
537.300	-36.281	0.100
537.400	-32.835	0.100
537.500	-43.183	0.100
537.600	-41.473	0.100
537.700	-23.067	0.100
537.800	-41.766	0.100
537.900	-39.903	0.100
538.000	-30.537	0.100
538.100	-21.946	0.100
538.200	-34.672	0.100
538.300	-39.835	0.100
538.400	-31.381	0.100
538.500	-49.444	0.100
538.600	-45.831	0.100
538.700	-16.649	0.100
538.800	-26.230	0.100
538.900	-22.718	0.100
539.000	-40.540	0.100
539.100	-39.662	0.100
539.200	-26.971	0.100
539.300	-35.291	0.100
539.400	-43.871	0.100
539.500	-30.668	0.100
539.600	-38.400	0.100
539.700	-33.402	0.100
539.800	-50.964	0.100
539.900	-28.845	0.100
540.000	-23.696	0.100
540.100	-40.134	0.100
540.200	-36.491	0.100
540.300	-40.734	0.100
540.400	-36.602	0.100
540.500	-30.412	0.100
540.600	-38.412	0.100
540.700	-38.196	0.100
540.800	-34.104	0.100
540.900	-53.474	0.100
541.000	-38.339	0.100
541.100	-36.733	0.100
541.200	-33.909	0.100
541.300	-38.407	0.100
541.400	-41.261	0.100
541.500	-49.630	0.100
541.600	-46.006	0.100
541.700	-46.465	0.100
541.800	-48.228	0.100
541.900	-32.460	0.100
542.000	-35.877	0.100
542.100	-56.029	0.100
542.200	-37.284	0.100
542.300	-45.624	0.100
542.400	-50.089	0.100
542.500	-51.994	0.100
542.600	-42.066	0.100
542.700	-48.566	0.100
542.800	-63.122	0.100
542.900	-46.059	0.100
543.000	-45.669	0.100
543.100	-50.631	0.100
543.200	-60.226	0.100
543.300	-40.546	0.100
543.400	-49.604	0.100
543.500	-53.618	0.100
543.600	-44.179	0.100
543.700	-45.596	0.100
543.800	-64.522	0.100
543.900	-53.186	0.100
544.000	-39.378	0.100
544.100	-61.327	0.100
544.200	-55.914	0.100
544.300	-51.307	0.100
544.400	-60.939	0.100
544.500	-54.813	0.100
544.600	-44.252	0.100
544.700	-57.564	0.100
544.800	-49.090	0.100
544.900	-58.193	0.100
545.000	-52.040	0.100
545.100	-56.696	0.100
545.200	-66.896	0.100
545.300	-51.452	0.100
545.400	-37.417	0.100
545.500	-63.365	0.100
545.600	-51.814	0.100
545.700	-59.284	0.100
545.800	-53.914	0.100
545.900	-53.635	0.100
546.000	-45.942	0.100
546.100	-62.851	0.100
546.200	-61.945	0.100
546.300	-51.055	0.100
546.400	-54.788	0.100
546.500	-69.144	0.100
546.600	-40.387	0.100
546.700	-53.969	0.100
546.800	-68.860	0.100
546.900	-65.431	0.100
547.000	-63.461	0.100
547.100	-44.724	0.100
547.200	-52.214	0.100
547.300	-62.621	0.100
547.400	-57.317	0.100
547.500	-67.884	0.100
547.600	-55.766	0.100
547.700	-51.391	0.100
547.800	-58.370	0.100
547.900	-67.021	0.100
548.000	-58.272	0.100
548.100	-47.831	0.100
548.200	-58.787	0.100
548.300	-66.425	0.100
548.400	-71.396	0.100
548.500	-52.011	0.100
548.600	-64.665	0.100
548.700	-48.316	0.100
548.800	-61.252	0.100
548.900	-59.210	0.100
549.000	-47.951	0.100
549.100	-48.264	0.100
549.200	-66.721	0.100
549.300	-63.961	0.100
549.400	-60.692	0.100
549.500	-61.098	0.100
549.600	-62.182	0.100
549.700	-62.533	0.100
549.800	-79.799	0.100
549.900	-59.849	0.100
550.000	-63.888	0.100
550.100	-38.194	0.100
550.200	-64.685	0.100
550.300	-51.278	0.100
550.400	-56.229	0.100
550.500	-60.466	0.100
550.600	-47.530	0.100
550.700	-79.520	0.100
550.800	-49.300	0.100
550.900	-51.363	0.100
551.000	-64.421	0.100
551.100	-64.143	0.100
551.200	-63.482	0.100
551.300	-48.666	0.100
551.400	-72.824	0.100
551.500	-59.328	0.100
551.600	-56.549	0.100
551.700	-54.241	0.100
551.800	-67.058	0.100
551.900	-57.418	0.100
552.000	-53.604	0.100
552.100	-57.072	0.100
552.200	-74.243	0.100
552.300	-64.662	0.100
552.400	-60.858	0.100
552.500	-59.221	0.100
552.600	-65.609	0.100
552.700	-48.220	0.100
552.800	-63.187	0.100
552.900	-61.441	0.100
553.000	-55.568	0.100
553.100	-52.744	0.100
553.200	-61.772	0.100
553.300	-66.078	0.100
553.400	-64.819	0.100
553.500	-81.578	0.100
553.600	-54.285	0.100
553.700	-60.471	0.100
553.800	-74.446	0.100
553.900	-70.285	0.100
554.000	-70.014	0.100
554.100	-68.225	0.100
554.200	-64.054	0.100
554.300	-58.227	0.100
554.400	-70.148	0.100
554.500	-64.746	0.100
554.600	-71.968	0.100
554.700	-69.404	0.100
554.800	-62.705	0.100
554.900	-64.744	0.100
555.000	-70.019	0.100
555.100	-55.942	0.100
555.200	-85.196	0.100
555.300	-69.642	0.100
555.400	-61.120	0.100
555.500	-69.883	0.100
555.600	-66.738	0.100
555.700	-76.451	0.100
555.800	-71.269	0.100
555.900	-71.943	0.100
556.000	-73.625	0.100
556.100	-48.291	0.100
556.200	-58.275	0.100
556.300	-72.892	0.100
556.400	-68.843	0.100
556.500	-65.434	0.100
556.600	-73.261	0.100
556.700	-59.315	0.100
556.800	-64.999	0.100
556.900	-75.450	0.100
557.000	-71.221	0.100
557.100	-62.961	0.100
557.200	-76.877	0.100
557.300	-73.041	0.100
557.400	-71.207	0.100
557.500	-50.032	0.100
557.600	-69.888	0.100
557.700	-66.374	0.100
557.800	-61.599	0.100
557.900	-69.092	0.100
558.000	-64.931	0.100
558.100	-81.138	0.100
558.200	-64.338	0.100
558.300	-68.730	0.100
558.400	-78.970	0.100
558.500	-63.209	0.100
558.600	-64.854	0.100
558.700	-64.296	0.100
558.800	-63.896	0.100
558.900	-66.651	0.100
559.000	-69.802	0.100
559.100	-67.766	0.100
559.200	-73.673	0.100
559.300	-66.565	0.100
559.400	-72.859	0.100
559.500	-85.303	0.100
559.600	-72.790	0.100
559.700	-55.174	0.100
559.800	-72.228	0.100
559.900	-61.416	0.100
560.000	-74.914	0.100
560.100	-65.387	0.100
560.200	-70.730	0.100
560.300	-62.764	0.100
560.400	-65.084	0.100
560.500	-76.350	0.100
560.600	-64.390	0.100
560.700	-64.795	0.100
560.800	-88.019	0.100
560.900	-74.851	0.100
561.000	-70.758	0.100
561.100	-55.180	0.100
561.200	-69.627	0.100
561.300	-73.403	0.100
561.400	-90.434	0.100
561.500	-72.965	0.100
561.600	-72.945	0.100
561.700	-70.696	0.100
561.800	-73.158	0.100
561.900	-65.036	0.100
562.000	-77.765	0.100
562.100	-81.596	0.100
562.200	-64.209	0.100
562.300	-64.918	0.100
562.400	-72.798	0.100
562.500	-76.035	0.100
562.600	-70.595	0.100
562.700	-77.781	0.100
562.800	-64.150	0.100
562.900	-76.730	0.100
563.000	-63.901	0.100
563.100	-73.557	0.100
563.200	-66.151	0.100
563.300	-74.887	0.100
563.400	-75.633	0.100
563.500	-72.039	0.100
563.600	-71.777	0.100
563.700	-84.196	0.100
563.800	-68.046	0.100
563.900	-75.702	0.100
564.000	-71.842	0.100
564.100	-71.264	0.100
564.200	-59.375	0.100
564.300	-75.059	0.100
564.400	-90.162	0.100
564.500	-75.560	0.100
564.600	-70.198	0.100
564.700	-77.485	0.100
564.800	-79.563	0.100
564.900	-65.944	0.100
565.000	-78.505	0.100
565.100	-78.895	0.100
565.200	-74.492	0.100
565.300	-51.867	0.100
565.400	-71.301	0.100
565.500	-80.455	0.100
565.600	-69.889	0.100
565.700	-76.678	0.100
565.800	-79.259	0.100
565.900	-85.169	0.100
566.000	-65.248	0.100
566.100	-76.026	0.100
566.200	-85.466	0.100
566.300	-66.105	0.100
566.400	-84.524	0.100
566.500	-74.588	0.100
566.600	-80.031	0.100
566.700	-80.842	0.100
566.800	-70.126	0.100
566.900	-72.366	0.100
567.000	-73.527	0.100
567.100	-86.721	0.100
567.200	-64.299	0.100
567.300	-79.962	0.100
567.400	-87.281	0.100
567.500	-62.858	0.100
567.600	-73.920	0.100
567.700	-75.032	0.100
567.800	-81.667	0.100
567.900	-69.634	0.100
568.000	-72.819	0.100
568.100	-67.203	0.100
568.200	-86.866	0.100
568.300	-84.895	0.100
568.400	-77.897	0.100
568.500	-86.658	0.100
568.600	-83.418	0.100
568.700	-65.265	0.100
568.800	-75.393	0.100
568.900	-82.494	0.100
569.000	-80.603	0.100
569.100	-76.572	0.100
569.200	-75.696	0.100
569.300	-81.641	0.100
569.400	-74.921	0.100
569.500	-82.963	0.100
569.600	-70.336	0.100
569.700	-64.476	0.100
569.800	-63.208	0.100
569.900	-72.905	0.100
570.000	-80.577	0.100
570.100	-86.769	0.100
570.200	-75.968	0.100
570.300	-63.718	0.100
570.400	-72.436	0.100
570.500	-95.068	0.100
570.600	-61.834	0.100
570.700	-73.117	0.100
570.800	-96.654	0.100
570.900	-82.316	0.100
571.000	-69.854	0.100
571.100	-67.344	0.100
571.200	-86.307	0.100
571.300	-76.494	0.100
571.400	-73.207	0.100
571.500	-75.707	0.100
571.600	-92.266	0.100
571.700	-77.388	0.100
571.800	-58.521	0.100
571.900	-77.480	0.100
572.000	-74.037	0.100
572.100	-85.964	0.100
572.200	-77.777	0.100
572.300	-85.923	0.100
572.400	-85.515	0.100
572.500	-75.162	0.100
572.600	-80.596	0.100
572.700	-79.239	0.100
572.800	-73.991	0.100
572.900	-91.283	0.100
573.000	-79.745	0.100
573.100	-79.195	0.100
573.200	-72.273	0.100
573.300	-79.177	0.100
573.400	-73.360	0.100
573.500	-77.490	0.100
573.600	-75.205	0.100
573.700	-88.545	0.100
573.800	-81.160	0.100
573.900	-69.860	0.100
574.000	-85.123	0.100
574.100	-76.861	0.100
574.200	-82.601	0.100
574.300	-75.160	0.100
574.400	-70.277	0.100
574.500	-72.231	0.100
574.600	-76.263	0.100
574.700	-79.954	0.100
574.800	-81.081	0.100
574.900	-86.057	0.100
575.000	-66.740	0.100
575.100	-74.489	0.100
575.200	-95.027	0.100
575.300	-74.393	0.100
575.400	-67.431	0.100
575.500	-73.904	0.100
575.600	-82.336	0.100
575.700	-94.238	0.100
575.800	-72.588	0.100
575.900	-77.885	0.100
576.000	-79.942	0.099
576.100	-78.181	0.100
576.200	-74.624	0.099
576.300	-95.370	0.100
576.400	-75.825	0.100
576.500	-103.279	0.100
576.600	-66.488	0.100
576.700	-84.314	0.100
576.800	-98.861	0.099
576.900	-81.389	0.100
577.000	-90.645	0.099
577.100	-85.760	0.100
577.200	-84.053	0.100
577.300	-74.219	0.099
577.400	-83.787	0.099
577.500	-95.294	0.100
577.600	-80.049	0.100
577.700	-71.362	0.099
577.800	-83.359	0.099
577.900	-93.157	0.099
578.000	-74.273	0.099
578.100	-81.366	0.099
578.200	-93.549	0.099
578.300	-80.572	0.099
578.400	-79.855	0.099
578.500	-81.994	0.099
578.600	-83.017	0.099
578.700	-77.050	0.099
578.800	-85.157	0.099
578.900	-83.402	0.099
579.000	-82.718	0.099
579.100	-68.927	0.099
579.200	-83.612	0.099
579.300	-69.854	0.099
579.400	-89.855	0.099
579.500	-75.771	0.099
579.600	-80.971	0.100
579.700	-86.121	0.099
579.800	-84.903	0.099
579.900	-81.827	0.099
580.000	-83.241	0.099
580.100	-84.184	0.099
580.200	-91.284	0.099
580.300	-84.606	0.099
580.400	-75.796	0.099
580.500	-87.698	0.099
580.600	-88.307	0.099
580.700	-81.435	0.099
580.800	-63.605	0.099
580.900	-89.950	0.099
581.000	-77.136	0.099
581.100	-85.573	0.099
581.200	-83.979	0.099
581.300	-77.153	0.099
581.400	-90.289	0.099
581.500	-77.350	0.099
581.600	-98.331	0.099
581.700	-79.948	0.099
581.800	-83.359	0.099
581.900	-83.395	0.099
582.000	-81.725	0.099
582.100	-79.896	0.099
582.200	-102.396	0.099
582.300	-64.188	0.099
582.400	-77.524	0.099
582.500	-87.461	0.099
582.600	-77.762	0.099
582.700	-86.270	0.099
582.800	-83.873	0.099
582.900	-84.741	0.099
583.000	-89.650	0.099
583.100	-86.485	0.099
583.200	-83.804	0.099
583.300	-95.212	0.099
583.400	-95.495	0.099
583.500	-70.883	0.099
583.600	-84.327	0.099
583.700	-87.013	0.099
583.800	-76.856	0.099
583.900	-87.813	0.099
584.000	-78.632	0.099
584.100	-75.439	0.099
584.200	-80.213	0.099
584.300	-85.126	0.099
584.400	-81.776	0.099
584.500	-81.330	0.099
584.600	-85.807	0.099
584.700	-89.153	0.099
584.800	-79.761	0.099
584.900	-89.951	0.099
585.000	-77.579	0.099
585.100	-80.212	0.099
585.200	-93.882	0.099
585.300	-73.963	0.099
585.400	-86.362	0.099
585.500	-76.230	0.099
585.600	-107.382	0.099
585.700	-81.635	0.099
585.800	-81.842	0.099
585.900	-79.156	0.099
586.000	-88.258	0.099
586.100	-79.971	0.099
586.200	-101.086	0.099
586.300	-76.956	0.099
586.400	-78.489	0.099
586.500	-86.958	0.099
586.600	-97.847	0.099
586.700	-70.040	0.099
586.800	-80.303	0.099
586.900	-72.582	0.099
587.000	-83.443	0.099
587.100	-88.867	0.099
587.200	-78.704	0.099
587.300	-78.020	0.099
587.400	-75.855	0.099
587.500	-89.594	0.099
587.600	-81.099	0.099
587.700	-85.646	0.099
587.800	-88.990	0.099
587.900	-74.095	0.099
588.000	-95.856	0.099
588.100	-97.643	0.099
588.200	-82.825	0.099
588.300	-75.872	0.099
588.400	-94.893	0.099
588.500	-70.875	0.099
588.600	-66.990	0.099
588.700	-92.116	0.099
588.800	-115.050	0.099
588.900	-85.896	0.099
589.000	-86.740	0.099
589.100	-84.444	0.099
589.200	-81.490	0.099
589.300	-98.740	0.099
589.400	-81.790	0.099
589.500	-101.777	0.099
589.600	-71.346	0.099
589.700	-86.971	0.099
589.800	-86.612	0.099
589.900	-76.455	0.099
590.000	-99.363	0.099
590.100	-71.796	0.099
590.200	-85.308	0.099
590.300	-83.348	0.099
590.400	-91.024	0.099
590.500	-79.286	0.099
590.600	-79.861	0.099
590.700	-95.447	0.099
590.800	-80.419	0.099
590.900	-81.773	0.099
591.000	-81.697	0.099
591.100	-80.503	0.099
591.200	-82.837	0.099
591.300	-72.788	0.099
591.400	-81.346	0.099
591.500	-91.508	0.099
591.600	-80.912	0.099
591.700	-90.507	0.099
591.800	-100.486	0.099
591.900	-85.456	0.099
592.000	-88.299	0.099
592.100	-75.979	0.099
592.200	-82.719	0.099
592.300	-96.205	0.099
592.400	-77.796	0.099
592.500	-88.797	0.099
592.600	-88.797	0.099
592.700	-85.547	0.099
592.800	-85.634	0.099
592.900	-88.151	0.099
593.000	-86.673	0.099
593.100	-75.279	0.099
593.200	-86.258	0.099
593.300	-87.547	0.099
593.400	-91.861	0.099
593.500	-88.616	0.099
593.600	-87.171	0.099
593.700	-79.048	0.099
593.800	-96.768	0.099
593.900	-85.254	0.099
594.000	-94.751	0.099
594.100	-70.985	0.099
594.200	-82.681	0.099
594.300	-72.849	0.099
594.400	-81.347	0.099
594.500	-89.779	0.099
594.600	-74.745	0.099
594.700	-95.362	0.099
594.800	-80.756	0.099
594.900	-85.727	0.099
595.000	-86.451	0.099
595.100	-82.911	0.099
595.200	-80.299	0.099
595.300	-81.746	0.099
595.400	-88.034	0.099
595.500	-74.068	0.099
595.600	-88.801	0.099
595.700	-81.184	0.099
595.800	-110.254	0.099
595.900	-58.305	0.099
596.000	-79.845	0.099
596.100	-84.555	0.099
596.200	-81.816	0.099
596.300	-86.805	0.099
596.400	-83.045	0.099
596.500	-74.382	0.099
596.600	-96.057	0.099
596.700	-85.624	0.099
596.800	-81.702	0.099
596.900	-78.118	0.099
597.000	-93.692	0.099
597.100	-82.660	0.099
597.200	-83.819	0.099
597.300	-91.985	0.099
597.400	-90.086	0.099
597.500	-91.677	0.099
597.600	-98.692	0.099
597.700	-94.347	0.099
597.800	-70.938	0.099
597.900	-83.455	0.099
598.000	-87.296	0.099
598.100	-84.615	0.099
598.200	-75.917	0.099
598.300	-88.923	0.099
598.400	-79.740	0.099
598.500	-86.928	0.099
598.600	-92.463	0.099
598.700	-82.183	0.099
598.800	-91.474	0.099
598.900	-78.667	0.099
599.000	-80.416	0.099
599.100	-94.651	0.099
599.200	-74.072	0.099
599.300	-91.918	0.099
599.400	-90.009	0.099
599.500	-80.898	0.099
599.600	-91.129	0.099
599.700	-95.690	0.099
599.800	-86.286	0.099
599.900	-83.385	0.099
600.000	-81.551	0.099
600.100	-78.181	0.099
600.200	-87.392	0.099
600.300	-79.942	0.099
600.400	-75.226	0.099
600.500	-98.366	0.099
600.600	-81.867	0.099
600.700	-90.910	0.099
600.800	-64.205	0.099
600.900	-85.059	0.099
601.000	-87.917	0.099
601.100	-86.826	0.099
601.200	-97.528	0.099
601.300	-77.082	0.099
601.400	-84.271	0.099
601.500	-74.675	0.099
601.600	-79.983	0.099
601.700	-72.280	0.099
601.800	-89.599	0.099
601.900	-92.049	0.099
602.000	-81.833	0.099
602.100	-78.227	0.099
602.200	-87.234	0.099
602.300	-87.228	0.099
602.400	-78.014	0.099
602.500	-79.662	0.099
602.600	-85.365	0.099
602.700	-96.724	0.099
602.800	-112.486	0.099
602.900	-86.590	0.099
603.000	-99.470	0.099
603.100	-88.156	0.099
603.200	-78.507	0.099
603.300	-90.828	0.099
603.400	-87.514	0.099
603.500	-82.359	0.099
603.600	-90.575	0.099
603.700	-84.969	0.099
603.800	-89.417	0.099
603.900	-85.260	0.099
604.000	-91.532	0.099
604.100	-77.040	0.099
604.200	-81.923	0.099
604.300	-83.100	0.099
604.400	-89.160	0.099
604.500	-89.738	0.099
604.600	-83.527	0.099
604.700	-78.745	0.099
604.800	-85.515	0.099
604.900	-87.130	0.099
605.000	-82.750	0.099
605.100	-79.698	0.099
605.200	-78.879	0.099
605.300	-84.390	0.099
605.400	-102.799	0.099
605.500	-83.398	0.099
605.600	-77.592	0.099
605.700	-77.157	0.099
605.800	-76.107	0.099
605.900	-86.105	0.099
606.000	-97.683	0.099
606.100	-75.290	0.099
606.200	-87.884	0.099
606.300	-92.889	0.099
606.400	-84.047	0.099
606.500	-88.230	0.099
606.600	-80.376	0.099
606.700	-78.237	0.099
606.800	-98.009	0.099
606.900	-83.762	0.099
607.000	-101.948	0.099
607.100	-70.680	0.099
607.200	-93.119	0.099
607.300	-86.216	0.099
607.400	-87.046	0.099
607.500	-100.809	0.099
607.600	-91.854	0.099
607.700	-81.576	0.099
607.800	-74.214	0.099
607.900	-95.605	0.099
608.000	-79.359	0.099
608.100	-74.724	0.099
608.200	-90.570	0.099
608.300	-83.111	0.099
608.400	-92.695	0.099
608.500	-84.738	0.099
608.600	-81.833	0.099
608.700	-82.546	0.099
608.800	-89.224	0.099
608.900	-89.679	0.099
609.000	-93.626	0.099
609.100	-94.725	0.099
609.200	-81.500	0.099
609.300	-84.954	0.099
609.400	-102.190	0.099
609.500	-80.197	0.099
609.600	-80.468	0.099
609.700	-83.867	0.099
609.800	-92.171	0.099
609.900	-80.131	0.099
610.000	-72.201	0.099
610.100	-84.129	0.099
610.200	-82.429	0.099
610.300	-81.799	0.099
610.400	-77.638	0.099
610.500	-86.467	0.099
610.600	-83.203	0.099
610.700	-87.405	0.099
610.800	-85.986	0.099
610.900	-97.336	0.099
611.000	-80.245	0.099
611.100	-81.249	0.099
611.200	-84.849	0.099
611.300	-87.684	0.099
611.400	-61.796	0.099
611.500	-91.848	0.099
611.600	-90.329	0.099
611.700	-89.802	0.099
611.800	-71.964	0.099
611.900	-93.783	0.099
612.000	-90.885	0.099
612.100	-86.556	0.099
612.200	-86.299	0.099
612.300	-87.026	0.099
612.400	-89.985	0.099
612.500	-81.205	0.099
612.600	-77.712	0.099
612.700	-93.183	0.099
612.800	-90.712	0.099
612.900	-91.388	0.099
613.000	-86.368	0.099
613.100	-81.634	0.099
613.200	-77.532	0.099
613.300	-94.563	0.099
613.400	-84.178	0.099
613.500	-82.850	0.099
613.600	-69.807	0.099
613.700	-96.782	0.099
613.800	-96.018	0.099
613.900	-82.403	0.099
614.000	-91.134	0.100
614.100	-84.770	0.100
614.200	-100.221	0.100
614.300	-99.297	0.100
614.400	-85.008	0.100
614.500	-83.839	0.100
614.600	-68.775	0.100
614.700	-85.691	0.100
614.800	-81.273	0.100
614.900	-88.456	0.100
615.000	-88.903	0.100
615.100	-72.211	0.100
615.200	-91.076	0.100
615.300	-76.156	0.100
615.400	-95.744	0.100
615.500	-71.156	0.100
615.600	-81.427	0.100
615.700	-93.891	0.100
615.800	-75.519	0.100
615.900	-78.945	0.100
616.000	-86.629	0.100
616.100	-79.892	0.100
616.200	-84.685	0.100
616.300	-82.537	0.100
616.400	-83.967	0.100
616.500	-79.664	0.100
616.600	-81.182	0.100
616.700	-96.473	0.100
616.800	-76.674	0.100
616.900	-93.396	0.100
617.000	-93.049	0.100
617.100	-88.484	0.100
617.200	-89.502	0.100
617.300	-84.227	0.100
617.400	-101.794	0.100
617.500	-92.102	0.100
617.600	-81.925	0.100
617.700	-81.451	0.100
617.800	-86.474	0.100
617.900	-85.521	0.100
618.000	-76.456	0.100
618.100	-87.660	0.100
618.200	-89.384	0.100
618.300	-85.461	0.100
618.400	-94.806	0.100
618.500	-82.595	0.100
618.600	-89.258	0.100
618.700	-90.629	0.100
618.800	-71.453	0.100
618.900	-90.372	0.100
619.000	-78.780	0.100
619.100	-70.158	0.100
619.200	-82.864	0.100
619.300	-94.121	0.100
619.400	-76.286	0.100
619.500	-95.223	0.100
619.600	-83.822	0.100
619.700	-83.944	0.100
619.800	-82.330	0.100
619.900	-81.148	0.100
620.000	-91.648	0.100
620.100	-100.157	0.100
620.200	-70.227	0.100
620.300	-80.599	0.100
620.400	-78.295	0.100
620.500	-90.657	0.100
620.600	-83.540	0.100
620.700	-85.497	0.100
620.800	-82.496	0.100
620.900	-81.846	0.100
621.000	-80.502	0.100
621.100	-74.771	0.100
621.200	-84.531	0.100
621.300	-77.437	0.100
621.400	-82.875	0.100
621.500	-91.523	0.100
621.600	-81.728	0.100
621.700	-92.682	0.100
621.800	-70.645	0.100
621.900	-78.895	0.100
622.000	-84.100	0.100
622.100	-77.088	0.100
622.200	-77.306	0.100
622.300	-87.578	0.100
622.400	-86.299	0.100
622.500	-85.336	0.100
622.600	-81.809	0.100
622.700	-96.224	0.100
622.800	-78.730	0.100
622.900	-87.670	0.100
623.000	-79.208	0.100
623.100	-86.897	0.100
623.200	-72.936	0.100
623.300	-87.075	0.100
623.400	-94.983	0.100
623.500	-93.685	0.100
623.600	-83.731	0.100
623.700	-76.090	0.100
623.800	-82.172	0.100
623.900	-92.681	0.100
624.000	-87.929	0.100
624.100	-73.110	0.100
624.200	-95.723	0.100
624.300	-68.557	0.100
624.400	-84.546	0.100
624.500	-90.593	0.100
624.600	-97.745	0.100
624.700	-76.382	0.100
624.800	-75.935	0.100
624.900	-89.277	0.100
625.000	-91.033	0.100
625.100	-84.461	0.100
625.200	-83.516	0.100
625.300	-72.411	0.100
625.400	-72.014	0.100
625.500	-98.548	0.100
625.600	-75.936	0.100
625.700	-70.825	0.100
625.800	-62.423	0.100
625.900	-77.207	0.100
626.000	-83.317	0.100
626.100	-81.349	0.100
626.200	-93.412	0.100
626.300	-77.420	0.100
626.400	-85.524	0.100
626.500	-84.442	0.100
626.600	-88.502	0.100
626.700	-85.889	0.100
626.800	-89.182	0.100
626.900	-66.747	0.100
627.000	-94.432	0.100
627.100	-69.723	0.100
627.200	-80.530	0.100
627.300	-84.403	0.100
627.400	-96.029	0.100
627.500	-86.233	0.100
627.600	-73.916	0.100
627.700	-79.171	0.100
627.800	-89.320	0.100
627.900	-66.247	0.100
628.000	-104.272	0.100
628.100	-90.333	0.100
628.200	-83.990	0.100
628.300	-73.799	0.100
628.400	-84.216	0.101
628.500	-87.737	0.100
628.600	-89.541	0.100
628.700	-84.658	0.100
628.800	-79.929	0.100
628.900	-83.320	0.100
629.000	-86.986	0.100
629.100	-96.776	0.100
629.200	-86.910	0.100
629.300	-88.302	0.100
629.400	-78.142	0.100
629.500	-89.647	0.100
629.600	-88.096	0.100
629.700	-72.407	0.100
629.800	-83.124	0.101
629.900	-84.809	0.100
630.000	-84.754	0.101
630.100	-82.854	0.100
630.200	-84.454	0.100
630.300	-86.572	0.101
630.400	-79.748	0.100
630.500	-76.183	0.100
630.600	-78.208	0.100
630.700	-85.544	0.100
630.800	-95.312	0.100
630.900	-76.595	0.100
631.000	-78.523	0.100
631.100	-98.446	0.100
631.200	-72.042	0.100
631.300	-85.906	0.100
631.400	-58.860	0.100
631.500	-84.641	0.100
631.600	-81.655	0.100
631.700	-76.693	0.100
631.800	-77.541	0.100
631.900	-64.454	0.100
632.000	-79.779	0.100
632.100	-80.373	0.100
632.200	-75.703	0.100
632.300	-62.838	0.100
632.400	-83.700	0.100
632.500	-75.762	0.100
632.600	-86.376	0.100
632.700	-65.051	0.100
632.800	-68.421	0.100
632.900	-74.190	0.100
633.000	-73.942	0.100
633.100	-75.656	0.100
633.200	-76.249	0.100
633.300	-71.167	0.100
633.400	-82.937	0.100
633.500	-65.738	0.100
633.600	-63.317	0.100
633.700	-78.920	0.100
633.800	-74.936	0.100
633.900	-75.508	0.100
634.000	-67.531	0.100
634.100	-65.258	0.100
634.200	-86.482	0.100
634.300	-66.241	0.100
634.400	-68.577	0.100
634.500	-73.588	0.100
634.600	-61.832	0.100
634.700	-69.961	0.100
634.800	-67.270	0.100
634.900	-78.422	0.100
635.000	-67.808	0.100
635.100	-73.301	0.100
635.200	-78.185	0.100
635.300	-74.673	0.100
635.400	-73.307	0.100
635.500	-69.049	0.100
635.600	-67.710	0.100
635.700	-69.497	0.100
635.800	-70.232	0.100
635.900	-67.818	0.100
636.000	-69.312	0.100
636.100	-75.910	0.100
636.200	-74.162	0.100
636.300	-69.861	0.100
636.400	-63.408	0.100
636.500	-65.931	0.100
636.600	-63.369	0.100
636.700	-54.268	0.100
636.800	-60.944	0.100
636.900	-76.993	0.100
637.000	-90.481	0.100
637.100	-69.060	0.100
637.200	-61.152	0.100
637.300	-51.884	0.100
637.400	-66.925	0.100
637.500	-66.606	0.100
637.600	-55.002	0.100
637.700	-75.507	0.100
637.800	-66.057	0.100
637.900	-53.369	0.100
638.000	-65.856	0.100
638.100	-48.907	0.100
638.200	-70.600	0.100
638.300	-63.757	0.100
638.400	-49.946	0.100
638.500	-65.673	0.100
638.600	-78.397	0.100
638.700	-69.198	0.100
638.800	-53.799	0.100
638.900	-71.755	0.100
639.000	-55.786	0.100
639.100	-57.138	0.100
639.200	-58.207	0.100
639.300	-56.943	0.100
639.400	-68.050	0.100
639.500	-63.806	0.100
639.600	-57.989	0.100
639.700	-58.280	0.100
639.800	-61.682	0.100
639.900	-60.524	0.100
640.000	-55.798	0.100
640.100	-54.417	0.100
640.200	-56.246	0.100
640.300	-55.456	0.100
640.400	-53.168	0.100
640.500	-55.876	0.100
640.600	-76.587	0.100
640.700	-71.651	0.100
640.800	-45.278	0.100
640.900	-50.989	0.100
641.000	-50.759	0.100
641.100	-54.915	0.100
641.200	-51.958	0.100
641.300	-65.979	0.100
641.400	-70.742	0.100
641.500	-53.846	0.100
641.600	-46.739	0.100
641.700	-57.469	0.100
641.800	-57.188	0.100
641.900	-50.509	0.100
642.000	-55.882	0.100
642.100	-58.904	0.100
642.200	-62.023	0.100
642.300	-56.987	0.100
642.400	-42.365	0.100
642.500	-55.417	0.100
642.600	-77.235	0.100
642.700	-50.128	0.100
642.800	-52.750	0.100
642.900	-48.434	0.100
643.000	-69.791	0.100
643.100	-49.913	0.100
643.200	-57.847	0.100
643.300	-59.390	0.100
643.400	-55.333	0.100
643.500	-48.334	0.100
643.600	-60.118	0.100
643.700	-47.455	0.100
643.800	-49.276	0.100
643.900	-64.622	0.100
644.000	-67.996	0.100
644.100	-61.768	0.100
644.200	-51.296	0.100
644.300	-62.545	0.100
644.400	-48.568	0.100
644.500	-44.143	0.100
644.600	-36.992	0.100
644.700	-55.565	0.100
644.800	-54.142	0.100
644.900	-54.315	0.100
645.000	-60.557	0.100
645.100	-58.841	0.100
645.200	-42.075	0.100
645.300	-51.173	0.100
645.400	-58.566	0.100
645.500	-56.832	0.100
645.600	-32.033	0.100
645.700	-39.296	0.100
645.800	-51.393	0.100
645.900	-62.088	0.100
646.000	-42.080	0.100
646.100	-51.988	0.100
646.200	-42.731	0.100
646.300	-52.773	0.100
646.400	-49.411	0.100
646.500	-46.379	0.100
646.600	-60.117	0.100
646.700	-51.519	0.100
646.800	-44.916	0.100
646.900	-55.396	0.100
647.000	-59.461	0.100
647.100	-51.578	0.100
647.200	-50.309	0.100
647.300	-46.484	0.100
647.400	-40.271	0.100
647.500	-51.294	0.100
647.600	-54.903	0.100
647.700	-54.619	0.100
647.800	-49.964	0.100
647.900	-36.595	0.100
648.000	-38.669	0.100
648.100	-58.731	0.100
648.200	-43.139	0.100
648.300	-52.624	0.100
648.400	-53.685	0.100
648.500	-42.702	0.100
648.600	-39.919	0.100
648.700	-46.847	0.100
648.800	-58.196	0.100
648.900	-34.032	0.100
649.000	-56.808	0.100
649.100	-48.539	0.100
649.200	-46.610	0.100
649.300	-29.725	0.100
649.400	-44.181	0.100
649.500	-29.203	0.100
649.600	-45.344	0.100
649.700	-40.548	0.100
649.800	-53.652	0.100
649.900	-43.703	0.100
650.000	-44.932	0.100
650.100	-39.779	0.100
650.200	-55.380	0.100
650.300	-35.008	0.100
650.400	-33.221	0.100
650.500	-61.584	0.100
650.600	-31.975	0.100
650.700	-50.981	0.100
650.800	-44.250	0.100
650.900	-47.647	0.100
651.000	-45.092	0.100
651.100	-42.873	0.100
651.200	-46.135	0.100
651.300	-52.305	0.100
651.400	-44.556	0.100
651.500	-35.433	0.100
651.600	-45.807	0.100
651.700	-57.277	0.100
651.800	-49.556	0.100
651.900	-42.810	0.100
652.000	-23.923	0.100
652.100	-50.026	0.100
652.200	-38.208	0.100
652.300	-41.248	0.100
652.400	-33.387	0.100
652.500	-45.379	0.100
652.600	-42.127	0.100
652.700	-30.964	0.100
652.800	-34.231	0.100
652.900	-43.024	0.100
653.000	-40.516	0.100
653.100	-43.750	0.100
653.200	-55.140	0.100
653.300	-41.820	0.100
653.400	-39.705	0.100
653.500	-41.619	0.100
653.600	-28.012	0.100
653.700	-46.488	0.100
653.800	-41.417	0.100
653.900	-47.061	0.100
654.000	-47.643	0.100
654.100	-38.394	0.100
654.200	-31.094	0.100
654.300	-39.303	0.100
654.400	-39.069	0.100
654.500	-46.498	0.100
654.600	-45.980	0.100
654.700	-48.434	0.100
654.800	-29.250	0.100
654.900	-39.631	0.100
655.000	-36.201	0.100
655.100	-58.337	0.100
655.200	-55.381	0.100
655.300	-25.008	0.100
655.400	-47.096	0.100
655.500	-37.587	0.100
655.600	-43.548	0.100
655.700	-29.275	0.100
655.800	-33.786	0.100
655.900	-39.041	0.100
656.000	-56.451	0.100
656.100	-34.760	0.100
656.200	-45.242	0.100
656.300	-41.808	0.100
656.400	-45.762	0.100
656.500	-38.490	0.100
656.600	-35.218	0.100
656.700	-51.722	0.100
656.800	-28.974	0.100
656.900	-39.077	0.100
657.000	-37.642	0.100
657.100	-52.854	0.100
657.200	-38.856	0.100
657.300	-41.512	0.100
657.400	-40.849	0.100
657.500	-41.885	0.100
657.600	-42.125	0.100
657.700	-42.239	0.100
657.800	-37.031	0.100
657.900	-49.958	0.100
658.000	-29.334	0.100
658.100	-32.851	0.100
658.200	-32.029	0.100
658.300	-36.366	0.100
658.400	-28.975	0.100
658.500	-36.000	0.100
658.600	-46.476	0.100
658.700	-36.485	0.100
658.800	-41.613	0.100
658.900	-38.019	0.100
659.000	-38.675	0.100
659.100	-46.215	0.100
659.200	-41.929	0.100
659.300	-26.611	0.100
659.400	-34.603	0.100
659.500	-36.830	0.100
659.600	-40.037	0.100
659.700	-34.805	0.100
659.800	-34.747	0.100
659.900	-48.295	0.100
660.000	-34.746	0.100
660.100	-32.178	0.100
660.200	-40.771	0.100
660.300	-32.347	0.100
660.400	-42.883	0.100
660.500	-30.790	0.100
660.600	-22.007	0.100
660.700	-22.262	0.100
660.800	-41.890	0.100
660.900	-23.764	0.100
661.000	-38.153	0.100
661.100	-33.390	0.100
661.200	-44.779	0.100
661.300	-32.269	0.100
661.400	-37.365	0.100
661.500	-53.368	0.100
661.600	-27.769	0.100
661.700	-28.308	0.100
661.800	-27.912	0.100
661.900	-44.317	0.100
662.000	-30.274	0.100
662.100	-40.426	0.100
662.200	-45.757	0.100
662.300	-41.557	0.100
662.400	-21.446	0.100
662.500	-39.327	0.100
662.600	-38.674	0.100
662.700	-37.234	0.100
662.800	-32.412	0.100
662.900	-36.330	0.100
663.000	-39.161	0.100
663.100	-34.494	0.100
663.200	-34.768	0.100
663.300	-29.400	0.100
663.400	-24.546	0.100
663.500	-38.349	0.100
663.600	-32.844	0.100
663.700	-33.345	0.100
663.800	-45.683	0.100
663.900	-24.601	0.100
664.000	-28.123	0.100
664.100	-36.701	0.100
664.200	-38.912	0.100
664.300	-43.415	0.100
664.400	-35.512	0.100
664.500	-38.010	0.100
664.600	-33.160	0.100
664.700	-42.340	0.100
664.800	-25.752	0.100
664.900	-34.947	0.100
665.000	-39.160	0.100
665.100	-39.450	0.100
665.200	-39.800	0.100
665.300	-36.205	0.100
665.400	-44.619	0.100
665.500	-39.042	0.100
665.600	-24.159	0.100
665.700	-45.371	0.100
665.800	-35.158	0.100
665.900	-40.052	0.100
666.000	-47.297	0.100
666.100	-24.235	0.100
666.200	-23.922	0.100
666.300	-34.227	0.100
666.400	-38.448	0.100
666.500	-41.193	0.100
666.600	-31.289	0.100
666.700	-34.967	0.100
666.800	-26.859	0.100
666.900	-29.375	0.100
667.000	-30.729	0.100
667.100	-35.396	0.100
667.200	-42.258	0.100
667.300	-33.684	0.100
667.400	-27.254	0.100
667.500	-40.258	0.100
667.600	-30.453	0.100
667.700	-25.587	0.100
667.800	-30.988	0.100
667.900	-29.972	0.100
668.000	-26.880	0.100
668.100	-39.484	0.100
668.200	-49.038	0.100
668.300	-40.675	0.100
668.400	-34.675	0.100
668.500	-38.386	0.100
668.600	-39.987	0.100
668.700	-43.599	0.100
668.800	-32.075	0.100
668.900	-37.103	0.100
669.000	-29.979	0.100
669.100	-31.741	0.100
669.200	-25.105	0.100
669.300	-34.256	0.100
669.400	-23.792	0.100
669.500	-35.505	0.100
669.600	-38.831	0.100
669.700	-43.599	0.100
669.800	-39.158	0.100
669.900	-34.051	0.100
670.000	-30.214	0.100
670.100	-41.692	0.100
670.200	-37.798	0.100
670.300	-39.673	0.100
670.400	-52.813	0.100
670.500	-34.643	0.100
670.600	-28.037	0.100
670.700	-36.057	0.100
670.800	-28.277	0.100
670.900	-48.765	0.100
671.000	-35.085	0.100
671.100	-27.354	0.100
671.200	-26.090	0.100
671.300	-40.567	0.100
671.400	-33.546	0.100
671.500	-23.817	0.100
671.600	-29.538	0.100
671.700	-35.477	0.100
671.800	-33.602	0.100
671.900	-37.079	0.100
672.000	-31.437	0.100
672.100	-26.978	0.100
672.200	-44.851	0.100
672.300	-23.136	0.100
672.400	-32.623	0.100
672.500	-47.304	0.100
672.600	-37.060	0.100
672.700	-48.181	0.100
672.800	-31.119	0.100
672.900	-49.290	0.100
673.000	-44.221	0.100
673.100	-21.074	0.100
673.200	-33.057	0.100
673.300	-44.055	0.100
673.400	-28.409	0.100
673.500	-36.501	0.100
673.600	-57.344	0.100
673.700	-34.417	0.100
673.800	-35.508	0.100
673.900	-41.992	0.100
674.000	-43.384	0.100
674.100	-11.398	0.100
674.200	-31.283	0.100
674.300	-24.226	0.100
674.400	-23.170	0.100
674.500	-31.453	0.100
674.600	-41.447	0.100
674.700	-40.960	0.100
674.800	-29.996	0.100
674.900	-30.162	0.100
675.000	-37.104	0.100
675.100	-22.669	0.100
675.200	-27.950	0.100
675.300	-35.912	0.100
675.400	-40.732	0.100
675.500	-29.641	0.100
675.600	-31.359	0.100
675.700	-26.507	0.100
675.800	-44.879	0.100
675.900	-33.707	0.100
676.000	-43.056	0.100
676.100	-36.957	0.100
676.200	-31.906	0.100
676.300	-50.496	0.100
676.400	-20.471	0.100
676.500	-39.402	0.100
676.600	-46.083	0.100
676.700	-25.851	0.100
676.800	-41.492	0.100
676.900	-29.743	0.100
677.000	-46.051	0.100
677.100	-33.790	0.100
677.200	-28.249	0.100
677.300	-31.813	0.100
677.400	-33.546	0.100
677.500	-21.691	0.100
677.600	-39.081	0.100
677.700	-36.014	0.100
677.800	-28.765	0.100
677.900	-35.856	0.100
678.000	-36.595	0.100
678.100	-21.722	0.100
678.200	-52.708	0.100
678.300	-41.318	0.100
678.400	-39.703	0.100
678.500	-40.583	0.100
678.600	-31.047	0.100
678.700	-30.948	0.100
678.800	-26.423	0.100
678.900	-32.181	0.100
679.000	-33.465	0.100
679.100	-39.569	0.100
679.200	-42.664	0.100
679.300	-41.430	0.100
679.400	-26.102	0.100
679.500	-46.891	0.100
679.600	-45.141	0.100
679.700	-28.716	0.100
679.800	-38.169	0.100
679.900	-37.588	0.100
680.000	-30.735	0.100
680.100	-40.779	0.100
680.200	-34.851	0.100
680.300	-36.118	0.100
680.400	-41.000	0.100
680.500	-29.168	0.100
680.600	-42.922	0.100
680.700	-29.177	0.100
680.800	-29.032	0.100
680.900	-27.980	0.100
681.000	-45.343	0.100
681.100	-23.945	0.100
681.200	-31.618	0.100
681.300	-30.885	0.100
681.400	-21.926	0.100
681.500	-27.649	0.100
681.600	-47.785	0.100
681.700	-31.256	0.100
681.800	-35.306	0.100
681.900	-33.035	0.100
682.000	-32.391	0.100
682.100	-24.312	0.100
682.200	-27.455	0.100
682.300	-35.148	0.100
682.400	-37.518	0.100
682.500	-20.095	0.100
682.600	-35.620	0.100
682.700	-25.772	0.100
682.800	-35.431	0.100
682.900	-51.726	0.100
683.000	-25.373	0.100
683.100	-29.313	0.100
683.200	-36.819	0.100
683.300	-42.899	0.100
683.400	-38.101	0.100
683.500	-36.125	0.100
683.600	-19.137	0.100
683.700	-42.952	0.100
683.800	-43.801	0.100
683.900	-29.810	0.100
684.000	-37.508	0.100
684.100	-25.092	0.100
684.200	-24.235	0.100
684.300	-34.752	0.100
684.400	-44.874	0.100
684.500	-34.322	0.100
684.600	-47.412	0.100
684.700	-32.649	0.100
684.800	-27.063	0.100
684.900	-29.292	0.100
685.000	-25.920	0.100
685.100	-42.474	0.100
685.200	-42.009	0.100
685.300	-17.150	0.100
685.400	-40.315	0.100
685.500	-37.540	0.100
685.600	-31.284	0.100
685.700	-38.830	0.100
685.800	-35.376	0.100
685.900	-37.725	0.100
686.000	-32.108	0.100
686.100	-36.803	0.100
686.200	-27.921	0.100
686.300	-45.395	0.100
686.400	-24.764	0.100
686.500	-37.232	0.100
686.600	-21.524	0.100
686.700	-51.488	0.100
686.800	-15.230	0.100
686.900	-44.831	0.100
687.000	-35.536	0.100
687.100	-42.297	0.100
687.200	-33.960	0.100
687.300	-41.809	0.100
687.400	-32.866	0.100
687.500	-32.312	0.100
687.600	-42.156	0.100
687.700	-38.257	0.100
687.800	-29.477	0.100
687.900	-24.819	0.100
688.000	-32.404	0.100
688.100	-34.874	0.100
688.200	-44.769	0.100
688.300	-44.480	0.100
688.400	-35.852	0.100
688.500	-29.966	0.100
688.600	-25.740	0.100
688.700	-39.496	0.100
688.800	-40.955	0.100
688.900	-30.999	0.100
689.000	-38.825	0.100
689.100	-25.196	0.100
689.200	-30.401	0.100
689.300	-43.102	0.100
689.400	-19.995	0.100
689.500	-40.043	0.100
689.600	-39.990	0.100
689.700	-28.293	0.100
689.800	-36.324	0.100
689.900	-34.508	0.100
690.000	-23.293	0.100
690.100	-37.214	0.100
690.200	-39.985	0.100
690.300	-33.569	0.100
690.400	-49.336	0.100
690.500	-27.483	0.100
690.600	-37.677	0.100
690.700	-41.797	0.100
690.800	-23.919	0.100
690.900	-29.469	0.100
691.000	-53.910	0.100
691.100	-17.723	0.100
691.200	-36.628	0.100
691.300	-35.833	0.100
691.400	-43.468	0.100
691.500	-24.882	0.100
691.600	-35.330	0.100
691.700	-48.472	0.100
691.800	-33.797	0.100
691.900	-31.470	0.100
692.000	-26.925	0.100
692.100	-48.853	0.100
692.200	-41.332	0.100
692.300	-48.515	0.100
692.400	-44.447	0.100
692.500	-40.825	0.100
692.600	-56.451	0.100
692.700	-38.258	0.100
692.800	-42.493	0.100
692.900	-40.958	0.100
693.000	-30.473	0.100
693.100	-47.484	0.100
693.200	-46.756	0.100
693.300	-40.118	0.100
693.400	-49.022	0.100
693.500	-43.617	0.100
693.600	-45.639	0.100
693.700	-35.139	0.100
693.800	-33.263	0.100
693.900	-45.378	0.100
694.000	-50.987	0.100
694.100	-47.206	0.100
694.200	-39.256	0.100
694.300	-47.386	0.100
694.400	-40.919	0.100
694.500	-58.367	0.100
694.600	-37.323	0.100
694.700	-47.324	0.100
694.800	-38.402	0.100
694.900	-52.264	0.100
695.000	-50.652	0.100
695.100	-51.604	0.100
695.200	-44.505	0.100
695.300	-43.629	0.100
695.400	-46.624	0.100
695.500	-49.876	0.100
695.600	-46.125	0.100
695.700	-66.111	0.100
695.800	-58.299	0.100
695.900	-26.140	0.100
696.000	-42.720	0.100
696.100	-43.359	0.100
696.200	-45.846	0.100
696.300	-48.070	0.100
696.400	-44.405	0.100
696.500	-41.045	0.100
696.600	-47.002	0.100
696.700	-54.646	0.100
696.800	-43.720	0.100
696.900	-55.323	0.100
697.000	-46.463	0.100
697.100	-38.067	0.100
697.200	-45.662	0.100
697.300	-58.307	0.100
697.400	-48.144	0.100
697.500	-51.868	0.100
697.600	-57.231	0.100
697.700	-51.290	0.100
697.800	-58.162	0.100
697.900	-68.055	0.100
698.000	-56.971	0.100
698.100	-52.124	0.100
698.200	-45.596	0.100
698.300	-61.126	0.100
698.400	-46.883	0.100
698.500	-46.020	0.100
698.600	-45.541	0.100
698.700	-59.083	0.100
698.800	-54.932	0.100
698.900	-54.255	0.100
699.000	-53.854	0.100
699.100	-54.485	0.100
699.200	-43.203	0.100
699.300	-48.473	0.100
699.400	-57.520	0.100
699.500	-52.019	0.100
699.600	-53.070	0.100
699.700	-74.066	0.100
699.800	-63.503	0.100
699.900	-52.576	0.100
700.000	-66.329	0.100
700.100	-64.002	0.100
700.200	-49.537	0.100
700.300	-47.368	0.100
700.400	-55.240	0.100
700.500	-58.002	0.100
700.600	-62.193	0.100
700.700	-55.615	0.100
700.800	-55.203	0.100
700.900	-52.628	0.100
701.000	-60.452	0.100
701.100	-59.330	0.100
701.200	-63.326	0.100
701.300	-45.373	0.100
701.400	-54.209	0.100
701.500	-65.441	0.100
701.600	-54.799	0.100
701.700	-56.998	0.100
701.800	-44.303	0.100
701.900	-59.860	0.100
702.000	-68.821	0.100
702.100	-38.656	0.100
702.200	-58.473	0.100
702.300	-58.374	0.100
702.400	-54.071	0.100
702.500	-49.078	0.100
702.600	-62.697	0.100
702.700	-68.517	0.100
702.800	-42.644	0.100
702.900	-63.589	0.100
703.000	-68.851	0.100
703.100	-49.193	0.100
703.200	-53.449	0.100
703.300	-58.760	0.100
703.400	-42.678	0.100
703.500	-40.830	0.100
703.600	-61.816	0.100
703.700	-66.560	0.100
703.800	-59.781	0.100
703.900	-60.710	0.100
704.000	-65.680	0.100
704.100	-47.428	0.100
704.200	-56.227	0.100
704.300	-52.236	0.100
704.400	-55.413	0.100
704.500	-54.144	0.100
704.600	-63.724	0.100
704.700	-61.633	0.100
704.800	-60.983	0.100
704.900	-64.674	0.100
705.000	-63.853	0.100
705.100	-43.007	0.100
705.200	-71.444	0.100
705.300	-55.597	0.100
705.400	-48.341	0.100
705.500	-62.347	0.100
705.600	-62.873	0.100
705.700	-60.217	0.100
705.800	-62.374	0.100
705.900	-54.042	0.100
706.000	-64.962	0.100
706.100	-42.237	0.100
706.200	-58.181	0.100
706.300	-55.582	0.100
706.400	-60.657	0.100
706.500	-62.109	0.100
706.600	-74.287	0.100
706.700	-61.688	0.100
706.800	-62.793	0.100
706.900	-66.881	0.100
707.000	-66.926	0.100
707.100	-76.606	0.100
707.200	-42.338	0.100
707.300	-51.542	0.100
707.400	-59.643	0.100
707.500	-53.697	0.100
707.600	-63.336	0.100
707.700	-59.306	0.100
707.800	-56.220	0.100
707.900	-78.802	0.100
708.000	-75.216	0.100
708.100	-54.435	0.100
708.200	-58.242	0.100
708.300	-64.614	0.100
708.400	-43.424	0.100
708.500	-70.099	0.100
708.600	-64.135	0.100
708.700	-61.364	0.100
708.800	-52.238	0.100
708.900	-54.373	0.100
709.000	-67.777	0.100
709.100	-57.327	0.100
709.200	-74.369	0.100
709.300	-60.983	0.100
709.400	-65.599	0.100
709.500	-62.734	0.100
709.600	-62.303	0.100
709.700	-60.355	0.100
709.800	-52.123	0.100
709.900	-58.630	0.100
710.000	-67.137	0.100
710.100	-64.191	0.100
710.200	-67.682	0.100
710.300	-61.493	0.100
710.400	-66.019	0.100
710.500	-64.374	0.100
710.600	-68.708	0.100
710.700	-59.987	0.100
710.800	-74.355	0.100
710.900	-78.282	0.100
711.000	-52.616	0.100
711.100	-61.825	0.100
711.200	-61.564	0.100
711.300	-57.733	0.100
711.400	-64.572	0.100
711.500	-73.155	0.100
711.600	-58.067	0.100
711.700	-60.924	0.100
711.800	-77.305	0.100
711.900	-64.498	0.100
712.000	-67.944	0.100
712.100	-65.625	0.100
712.200	-55.487	0.100
712.300	-55.018	0.100
712.400	-80.633	0.100
712.500	-70.177	0.100
712.600	-66.918	0.100
712.700	-65.101	0.100
712.800	-62.043	0.100
712.900	-68.509	0.100
713.000	-62.809	0.100
713.100	-79.072	0.100
713.200	-68.744	0.100
713.300	-55.013	0.100
713.400	-69.813	0.100
713.500	-84.458	0.100
713.600	-66.402	0.100
713.700	-71.016	0.100
713.800	-63.077	0.100
713.900	-52.537	0.100
714.000	-61.909	0.100
714.100	-67.637	0.100
714.200	-60.223	0.100
714.300	-65.941	0.100
714.400	-56.056	0.100
714.500	-72.119	0.100
714.600	-65.450	0.100
714.700	-66.150	0.100
714.800	-78.766	0.100
714.900	-62.511	0.100
715.000	-74.546	0.100
715.100	-72.437	0.100
715.200	-46.450	0.100
715.300	-66.086	0.100
715.400	-66.884	0.100
715.500	-74.145	0.100
715.600	-68.239	0.100
715.700	-63.517	0.100
715.800	-65.676	0.100
715.900	-67.512	0.100
716.000	-72.163	0.100
716.100	-74.698	0.100
716.200	-59.684	0.100
716.300	-77.702	0.100
716.400	-70.651	0.100
716.500	-49.635	0.100
716.600	-60.310	0.100
716.700	-72.141	0.100
716.800	-69.787	0.100
716.900	-74.353	0.100
717.000	-80.997	0.100
717.100	-70.910	0.100
717.200	-61.669	0.100
717.300	-65.334	0.100
717.400	-72.175	0.100
717.500	-68.060	0.100
717.600	-69.239	0.100
717.700	-70.231	0.100
717.800	-79.566	0.100
717.900	-73.229	0.100
718.000	-67.506	0.100
718.100	-69.385	0.100
718.200	-56.446	0.100
718.300	-70.628	0.100
718.400	-61.051	0.100
718.500	-65.608	0.100
718.600	-71.067	0.100
718.700	-65.977	0.100
718.800	-80.532	0.100
718.900	-59.150	0.100
719.000	-65.937	0.100
719.100	-69.741	0.100
719.200	-68.958	0.100
719.300	-71.884	0.100
719.400	-74.493	0.100
719.500	-76.743	0.100
719.600	-83.335	0.100
719.700	-75.536	0.100
719.800	-68.163	0.100
719.900	-78.771	0.100
720.000	-70.208	0.100
720.100	-73.275	0.100
720.200	-79.075	0.100
720.300	-85.349	0.100
720.400	-75.341	0.100
720.500	-84.162	0.100
720.600	-62.997	0.100
720.700	-65.967	0.100
720.800	-53.686	0.100
720.900	-72.211	0.100
721.000	-72.559	0.100
721.100	-89.562	0.100
721.200	-59.257	0.100
721.300	-74.009	0.100
721.400	-65.210	0.100
721.500	-67.594	0.100
721.600	-74.405	0.100
721.700	-76.718	0.100
721.800	-71.527	0.100
721.900	-74.049	0.100
722.000	-80.042	0.100
722.100	-73.507	0.100
722.200	-80.186	0.100
722.300	-65.581	0.100
722.400	-69.722	0.100
722.500	-80.031	0.100
722.600	-77.275	0.100
722.700	-79.816	0.100
722.800	-51.636	0.100
722.900	-66.132	0.100
723.000	-69.939	0.100
723.100	-75.812	0.100
723.200	-82.220	0.100
723.300	-61.739	0.100
723.400	-72.326	0.100
723.500	-80.259	0.100
723.600	-71.189	0.100
723.700	-76.080	0.100
723.800	-58.425	0.100
723.900	-74.686	0.100
724.000	-71.094	0.100
724.100	-77.452	0.100
724.200	-66.251	0.100
724.300	-66.995	0.100
724.400	-66.859	0.100
724.500	-69.281	0.100
724.600	-62.297	0.100
724.700	-85.633	0.100
724.800	-74.420	0.100
724.900	-82.099	0.100
725.000	-62.681	0.100
725.100	-84.841	0.100
725.200	-83.129	0.100
725.300	-65.193	0.100
725.400	-70.227	0.100
725.500	-62.398	0.100
725.600	-73.048	0.100
725.700	-67.759	0.100
725.800	-79.263	0.100
725.900	-71.742	0.100
726.000	-85.791	0.100
726.100	-67.432	0.100
726.200	-80.571	0.100
726.300	-64.227	0.100
726.400	-80.626	0.100
726.500	-67.381	0.100
726.600	-76.738	0.100
726.700	-81.782	0.100
726.800	-68.073	0.100
726.900	-79.500	0.100
727.000	-57.055	0.100
727.100	-62.440	0.100
727.200	-66.774	0.100
727.300	-77.486	0.100
727.400	-70.185	0.100
727.500	-79.281	0.100
727.600	-65.959	0.100
727.700	-89.018	0.100
727.800	-61.198	0.100
727.900	-63.190	0.100
728.000	-70.960	0.100
728.100	-66.843	0.100
728.200	-62.853	0.100
728.300	-78.530	0.100
728.400	-83.841	0.100
728.500	-67.325	0.100
728.600	-64.056	0.100
728.700	-79.199	0.100
728.800	-81.554	0.100
728.900	-76.826	0.100
729.000	-70.353	0.100
729.100	-65.795	0.100
729.200	-73.273	0.100
729.300	-64.567	0.100
729.400	-74.123	0.100
729.500	-74.393	0.100
729.600	-71.789	0.100
729.700	-73.312	0.100
729.800	-69.589	0.100
729.900	-77.087	0.100
730.000	-82.031	0.100
730.100	-81.980	0.100
730.200	-74.600	0.100
730.300	-73.695	0.100
730.400	-65.504	0.100
730.500	-76.771	0.100
730.600	-81.096	0.100
730.700	-68.025	0.100
730.800	-83.530	0.100
730.900	-73.119	0.100
731.000	-71.161	0.100
731.100	-81.380	0.100
731.200	-66.621	0.100
731.300	-71.530	0.100
731.400	-72.786	0.100
731.500	-76.049	0.100
731.600	-75.427	0.100
731.700	-78.347	0.100
731.800	-74.433	0.100
731.900	-64.602	0.100
732.000	-80.840	0.100
732.100	-66.915	0.100
732.200	-89.467	0.100
732.300	-67.854	0.100
732.400	-81.933	0.100
732.500	-89.641	0.100
732.600	-85.630	0.100
732.700	-64.217	0.100
732.800	-87.500	0.100
732.900	-75.254	0.100
733.000	-67.626	0.100
733.100	-74.616	0.100
733.200	-71.430	0.100
733.300	-77.241	0.100
733.400	-73.651	0.100
733.500	-84.859	0.100
733.600	-68.031	0.100
733.700	-68.143	0.100
733.800	-81.543	0.100
733.900	-67.286	0.100
734.000	-79.933	0.100
734.100	-69.192	0.100
734.200	-71.650	0.100
734.300	-72.335	0.100
734.400	-76.323	0.100
734.500	-66.986	0.100
734.600	-76.012	0.100
734.700	-68.668	0.100
734.800	-73.766	0.100
734.900	-75.605	0.100
735.000	-80.098	0.100
735.100	-75.174	0.100
735.200	-75.404	0.100
735.300	-73.340	0.100
735.400	-73.781	0.100
735.500	-79.373	0.100
735.600	-79.780	0.100
735.700	-60.051	0.100
735.800	-72.953	0.100
735.900	-77.768	0.100
736.000	-69.272	0.100
736.100	-97.315	0.100
736.200	-57.192	0.100
736.300	-93.266	0.100
736.400	-69.428	0.100
736.500	-75.471	0.100
736.600	-86.609	0.100
736.700	-65.655	0.100
736.800	-79.424	0.100
736.900	-60.241	0.100
737.000	-79.052	0.100
737.100	-70.696	0.100
737.200	-71.077	0.100
737.300	-72.167	0.100
737.400	-80.974	0.100
737.500	-78.423	0.100
737.600	-81.555	0.100
737.700	-74.813	0.100
737.800	-72.838	0.100
737.900	-90.975	0.100
738.000	-72.363	0.100
738.100	-71.966	0.100
738.200	-75.385	0.100
738.300	-82.628	0.100
738.400	-69.378	0.100
738.500	-71.490	0.100
738.600	-64.990	0.100
738.700	-81.257	0.100
738.800	-67.958	0.100
738.900	-74.662	0.100
739.000	-69.949	0.100
739.100	-91.658	0.100
739.200	-72.944	0.100
739.300	-89.681	0.100
739.400	-77.085	0.100
739.500	-84.524	0.100
739.600	-73.254	0.100
739.700	-79.476	0.100
739.800	-76.302	0.100
739.900	-69.908	0.100
740.000	-87.000	0.100
740.100	-74.610	0.100
740.200	-69.264	0.100
740.300	-85.471	0.100
740.400	-72.058	0.100
740.500	-80.290	0.100
740.600	-93.214	0.100
740.700	-77.434	0.100
740.800	-62.771	0.100
740.900	-94.989	0.100
741.000	-70.637	0.100
741.100	-67.454	0.100
741.200	-70.638	0.100
741.300	-70.555	0.100
741.400	-65.829	0.100
741.500	-92.353	0.100
741.600	-78.428	0.100
741.700	-72.601	0.100
741.800	-68.234	0.100
741.900	-75.066	0.100
742.000	-71.047	0.100
742.100	-80.322	0.100
742.200	-71.763	0.100
742.300	-84.736	0.100
742.400	-79.721	0.100
742.500	-68.517	0.100
742.600	-73.291	0.100
742.700	-64.358	0.100
742.800	-73.960	0.100
742.900	-79.991	0.100
743.000	-70.192	0.100
743.100	-75.704	0.100
743.200	-76.023	0.100
743.300	-76.123	0.100
743.400	-87.655	0.100
743.500	-66.136	0.100
743.600	-76.902	0.100
743.700	-72.468	0.100
743.800	-76.267	0.100
743.900	-64.301	0.100
744.000	-88.561	0.100
744.100	-69.220	0.100
744.200	-69.156	0.100
744.300	-84.124	0.100
744.400	-79.905	0.100
744.500	-76.046	0.100
744.600	-62.527	0.100
744.700	-80.181	0.100
744.800	-68.661	0.100
744.900	-73.902	0.100
745.000	-72.655	0.100
745.100	-83.326	0.100
745.200	-78.458	0.100
745.300	-75.668	0.100
745.400	-79.941	0.100
745.500	-105.616	0.100
745.600	-73.761	0.100
745.700	-69.566	0.100
745.800	-85.403	0.100
745.900	-77.392	0.100
746.000	-69.817	0.100
746.100	-70.885	0.100
746.200	-74.396	0.100
746.300	-82.239	0.100
746.400	-67.799	0.100
746.500	-67.143	0.100
746.600	-76.267	0.100
746.700	-83.233	0.100
746.800	-56.534	0.100
746.900	-73.946	0.100
747.000	-76.819	0.100
747.100	-71.887	0.100
747.200	-72.983	0.100
747.300	-91.622	0.100
747.400	-81.569	0.100
747.500	-70.703	0.100
747.600	-71.888	0.100
747.700	-73.809	0.100
747.800	-65.581	0.100
747.900	-75.219	0.100
748.000	-71.254	0.100
748.100	-64.122	0.100
748.200	-74.806	0.100
748.300	-91.984	0.100
748.400	-74.432	0.100
748.500	-70.059	0.100
748.600	-68.408	0.100
748.700	-69.779	0.100
748.800	-62.688	0.100
748.900	-79.801	0.100
749.000	-89.848	0.100
749.100	-78.011	0.100
749.200	-70.267	0.100
749.300	-78.740	0.100
749.400	-79.848	0.100
749.500	-85.724	0.100
749.600	-80.399	0.100
749.700	-77.368	0.100
749.800	-65.591	0.100
749.900	-69.695	0.100
750.000	-85.511	0.100
750.100	-66.570	0.100
750.200	-78.433	0.100
750.300	-69.672	0.100
750.400	-91.217	0.100
750.500	-89.454	0.100
750.600	-62.781	0.100
750.700	-84.828	0.100
750.800	-70.948	0.100
750.900	-77.815	0.100
751.000	-80.744	0.100
751.100	-55.862	0.100
751.200	-69.995	0.100
751.300	-75.021	0.100
751.400	-69.996	0.100
751.500	-78.367	0.100
751.600	-65.712	0.100
751.700	-81.742	0.100
751.800	-66.178	0.100
751.900	-83.779	0.100
752.000	-69.786	0.100
752.100	-79.538	0.100
752.200	-65.483	0.100
752.300	-67.582	0.100
752.400	-87.994	0.100
752.500	-69.638	0.100
752.600	-72.457	0.100
752.700	-70.955	0.100
752.800	-74.565	0.100
752.900	-97.839	0.100
753.000	-79.027	0.100
753.100	-75.590	0.100
753.200	-61.748	0.100
753.300	-78.081	0.100
753.400	-65.356	0.100
753.500	-86.601	0.100
753.600	-68.803	0.100
753.700	-72.698	0.100
753.800	-75.967	0.100
753.900	-67.959	0.100
754.000	-85.103	0.100
754.100	-56.941	0.100
754.200	-59.018	0.100
754.300	-83.632	0.100
754.400	-77.017	0.100
754.500	-86.261	0.100
754.600	-83.310	0.100
754.700	-70.567	0.100
754.800	-80.231	0.100
754.900	-77.453	0.100
755.000	-66.939	0.100
755.100	-57.688	0.100
755.200	-80.958	0.100
755.300	-100.230	0.100
755.400	-73.774	0.100
755.500	-72.109	0.100
755.600	-82.585	0.100
755.700	-61.006	0.100
755.800	-91.974	0.100
755.900	-62.798	0.100
756.000	-66.067	0.100
756.100	-90.470	0.100
756.200	-69.619	0.100
756.300	-75.984	0.100
756.400	-73.960	0.100
756.500	-76.556	0.100
756.600	-88.913	0.100
756.700	-49.944	0.100
756.800	-68.890	0.100
756.900	-78.623	0.100
757.000	-83.453	0.100
757.100	-74.569	0.100
757.200	-68.313	0.100
757.300	-82.198	0.100
757.400	-76.724	0.100
757.500	-79.925	0.100
757.600	-82.862	0.100
757.700	-66.951	0.100
757.800	-75.687	0.100
757.900	-72.616	0.100
758.000	-68.337	0.100
758.100	-67.503	0.100
758.200	-72.049	0.100
758.300	-80.358	0.100
758.400	-81.853	0.100
758.500	-81.583	0.100
758.600	-88.283	0.100
758.700	-75.698	0.100
758.800	-66.362	0.100
758.900	-88.127	0.100
759.000	-62.767	0.100
759.100	-71.433	0.100
759.200	-71.906	0.100
759.300	-71.972	0.100
759.400	-79.736	0.100
759.500	-86.314	0.100
759.600	-63.503	0.100
759.700	-85.209	0.100
759.800	-79.635	0.100
759.900	-63.082	0.100
760.000	-70.294	0.100
760.100	-70.386	0.100
760.200	-80.320	0.100
760.300	-80.776	0.100
760.400	-74.828	0.100
760.500	-84.591	0.100
760.600	-86.032	0.100
760.700	-63.206	0.100
760.800	-72.279	0.100
760.900	-72.891	0.100
761.000	-64.282	0.100
761.100	-81.396	0.100
761.200	-87.209	0.100
761.300	-83.253	0.100
761.400	-61.859	0.100
761.500	-81.989	0.100
761.600	-69.789	0.100
761.700	-77.878	0.100
761.800	-77.643	0.100
761.900	-73.070	0.100
762.000	-63.854	0.100
762.100	-78.911	0.100
762.200	-79.642	0.100
762.300	-76.135	0.100
762.400	-70.349	0.100
762.500	-70.906	0.100
762.600	-75.921	0.100
762.700	-75.544	0.100
762.800	-69.122	0.100
762.900	-70.555	0.100
763.000	-76.143	0.100
763.100	-84.294	0.100
763.200	-69.058	0.100
763.300	-73.971	0.100
763.400	-66.334	0.100
763.500	-68.443	0.100
763.600	-74.325	0.100
763.700	-79.721	0.100
763.800	-89.688	0.100
763.900	-82.914	0.100
764.000	-79.414	0.100
764.100	-79.859	0.100
764.200	-80.736	0.100
764.300	-78.827	0.100
764.400	-67.162	0.100
764.500	-69.793	0.100
764.600	-81.423	0.100
764.700	-68.894	0.100
764.800	-66.884	0.100
764.900	-81.673	0.100
765.000	-76.720	0.100
765.100	-78.915	0.100
765.200	-89.142	0.100
765.300	-57.332	0.100
765.400	-82.652	0.100
765.500	-68.878	0.100
765.600	-81.956	0.100
765.700	-56.969	0.100
765.800	-71.477	0.100
765.900	-70.464	0.100
766.000	-72.077	0.100
766.100	-77.243	0.100
766.200	-70.996	0.100
766.300	-65.545	0.100
766.400	-87.050	0.100
766.500	-83.716	0.100
766.600	-75.062	0.100
766.700	-70.573	0.100
766.800	-87.165	0.100
766.900	-65.646	0.100
767.000	-60.190	0.100
767.100	-77.899	0.100
767.200	-78.611	0.100
767.300	-68.298	0.100
767.400	-75.486	0.100
767.500	-86.220	0.100
767.600	-57.731	0.100
767.700	-82.190	0.100
767.800	-80.788	0.100
767.900	-91.570	0.100
768.000	-64.158	0.100
768.100	-71.770	0.100
768.200	-67.217	0.100
768.300	-70.060	0.100
768.400	-88.089	0.100
768.500	-79.993	0.100
768.600	-66.890	0.100
768.700	-75.846	0.100
768.800	-84.237	0.100
768.900	-78.615	0.100
769.000	-67.473	0.100
769.100	-66.294	0.100
769.200	-66.887	0.100
769.300	-78.192	0.100
769.400	-81.093	0.100
769.500	-71.580	0.100
769.600	-78.622	0.100
769.700	-76.801	0.100
769.800	-77.640	0.100
769.900	-70.117	0.100
770.000	-83.200	0.100
770.100	-61.932	0.100
770.200	-74.033	0.100
770.300	-84.046	0.100
770.400	-67.435	0.100
770.500	-59.514	0.100
770.600	-79.617	0.100
770.700	-82.124	0.100
770.800	-82.573	0.100
770.900	-53.263	0.100
771.000	-65.911	0.100
771.100	-65.213	0.100
771.200	-75.381	0.100
771.300	-70.363	0.100
771.400	-77.554	0.100
771.500	-71.875	0.100
771.600	-57.642	0.100
771.700	-79.652	0.100
771.800	-86.758	0.100
771.900	-71.772	0.100
772.000	-66.412	0.100
772.100	-84.947	0.100
772.200	-55.835	0.100
772.300	-74.657	0.100
772.400	-65.416	0.100
772.500	-70.279	0.100
772.600	-75.079	0.100
772.700	-81.398	0.100
772.800	-61.595	0.100
772.900	-74.299	0.100
773.000	-78.016	0.100
773.100	-89.997	0.100
773.200	-66.610	0.100
773.300	-73.484	0.100
773.400	-71.164	0.100
773.500	-67.767	0.100
773.600	-81.112	0.100
773.700	-69.977	0.100
773.800	-66.058	0.100
773.900	-70.608	0.100
774.000	-73.699	0.100
774.100	-58.814	0.100
774.200	-85.366	0.100
774.300	-72.093	0.100
774.400	-63.687	0.100
774.500	-74.696	0.100
774.600	-71.886	0.100
774.700	-71.203	0.100
774.800	-76.641	0.100
774.900	-65.835	0.100
775.000	-64.422	0.100
775.100	-78.136	0.100
775.200	-69.970	0.100
775.300	-78.743	0.100
775.400	-70.472	0.100
775.500	-64.781	0.100
775.600	-71.919	0.100
775.700	-68.142	0.100
775.800	-71.199	0.100
775.900	-70.921	0.100
776.000	-75.247	0.100
776.100	-61.440	0.100
776.200	-66.602	0.100
776.300	-71.788	0.100
776.400	-92.866	0.100
776.500	-79.776	0.100
776.600	-59.098	0.100
776.700	-73.094	0.100
776.800	-69.731	0.100
776.900	-76.146	0.100
777.000	-85.691	0.100
777.100	-94.622	0.100
777.200	-53.630	0.100
777.300	-67.412	0.100
777.400	-70.019	0.100
777.500	-73.266	0.100
777.600	-77.277	0.100
777.700	-72.677	0.100
777.800	-74.505	0.100
777.900	-90.111	0.100
778.000	-61.200	0.100
778.100	-69.485	0.100
778.200	-64.191	0.100
778.300	-81.826	0.100
778.400	-78.184	0.100
778.500	-78.943	0.100
778.600	-63.812	0.100
778.700	-66.728	0.100
778.800	-67.021	0.100
778.900	-77.611	0.100
779.000	-74.771	0.100
779.100	-71.458	0.100
779.200	-61.507	0.100
779.300	-72.622	0.100
779.400	-63.386	0.100
779.500	-74.040	0.100
779.600	-75.894	0.100
779.700	-75.953	0.100
779.800	-83.673	0.100
779.900	-81.271	0.100
780.000	-58.852	0.100
780.100	-61.793	0.100
780.200	-68.509	0.100
780.300	-77.007	0.100
780.400	-81.341	0.100
780.500	-76.298	0.100
780.600	-72.762	0.100
780.700	-62.972	0.100
780.800	-78.868	0.100
780.900	-65.944	0.100
781.000	-65.592	0.100
781.100	-57.290	0.100
781.200	-74.507	0.100
781.300	-66.794	0.100
781.400	-78.354	0.100
781.500	-74.499	0.100
781.600	-52.467	0.100
781.700	-71.503	0.100
781.800	-76.390	0.100
781.900	-67.938	0.100
782.000	-73.354	0.100
782.100	-57.035	0.100
782.200	-66.962	0.100
782.300	-85.447	0.100
782.400	-73.291	0.100
782.500	-66.049	0.100
782.600	-69.960	0.100
782.700	-60.848	0.100
782.800	-67.208	0.100
782.900	-69.712	0.100
783.000	-59.765	0.100
783.100	-59.118	0.100
783.200	-55.289	0.100
783.300	-84.297	0.100
783.400	-57.829	0.100
783.500	-65.649	0.100
783.600	-58.316	0.100
783.700	-63.936	0.100
783.800	-73.102	0.100
783.900	-57.832	0.100
784.000	-54.875	0.100
784.100	-61.711	0.100
784.200	-56.353	0.100
784.300	-79.122	0.100
784.400	-64.639	0.100
784.500	-46.266	0.100
784.600	-55.565	0.100
784.700	-62.764	0.100
784.800	-65.011	0.100
784.900	-69.248	0.100
785.000	-45.450	0.100
785.100	-59.191	0.100
785.200	-55.971	0.100
785.300	-61.949	0.100
785.400	-58.689	0.100
785.500	-63.008	0.100
785.600	-56.671	0.100
785.700	-57.418	0.100
785.800	-67.300	0.100
785.900	-39.928	0.100
786.000	-48.488	0.100
786.100	-62.885	0.100
786.200	-60.346	0.100
786.300	-63.126	0.100
786.400	-60.889	0.100
786.500	-55.455	0.100
786.600	-63.319	0.100
786.700	-60.512	0.100
786.800	-56.644	0.100
786.900	-59.056	0.100
787.000	-59.504	0.100
787.100	-53.720	0.100
787.200	-66.574	0.100
787.300	-54.481	0.100
787.400	-66.316	0.100
787.500	-52.773	0.100
787.600	-57.528	0.100
787.700	-57.222	0.100
787.800	-43.193	0.100
787.900	-49.473	0.100
788.000	-44.858	0.100
788.100	-58.479	0.100
788.200	-64.076	0.100
788.300	-46.319	0.100
788.400	-41.150	0.100
788.500	-59.184	0.100
788.600	-48.157	0.100
788.700	-56.058	0.100
788.800	-53.238	0.100
788.900	-43.067	0.100
789.000	-55.960	0.100
789.100	-57.662	0.100
789.200	-43.065	0.100
789.300	-61.073	0.100
789.400	-40.474	0.100
789.500	-57.679	0.100
789.600	-47.718	0.100
789.700	-37.366	0.100
789.800	-42.666	0.100
789.900	-55.401	0.100
790.000	-57.086	0.100
790.100	-38.059	0.100
790.200	-55.078	0.100
790.300	-36.290	0.100
790.400	-55.239	0.100
790.500	-47.645	0.100
790.600	-56.857	0.100
790.700	-49.686	0.100
790.800	-44.963	0.100
790.900	-50.955	0.100
791.000	-56.029	0.100
791.100	-43.003	0.100
791.200	-43.566	0.100
791.300	-48.532	0.100
791.400	-42.250	0.100
791.500	-52.963	0.100
791.600	-45.018	0.100
791.700	-45.456	0.100
791.800	-51.317	0.100
791.900	-43.956	0.100
792.000	-34.454	0.100
792.100	-34.469	0.100
792.200	-38.229	0.100
792.300	-62.111	0.100
792.400	-38.709	0.100
792.500	-41.514	0.100
792.600	-32.741	0.100
792.700	-49.466	0.100
792.800	-66.165	0.100
792.900	-42.198	0.100
793.000	-43.852	0.100
793.100	-42.189	0.100
793.200	-42.822	0.100
793.300	-35.286	0.100
793.400	-41.513	0.100
793.500	-39.503	0.100
793.600	-49.251	0.100
793.700	-54.324	0.100
793.800	-44.461	0.100
793.900	-55.957	0.100
794.000	-37.973	0.100
794.100	-48.834	0.100
794.200	-41.378	0.100
794.300	-54.442	0.100
794.400	-38.933	0.100
794.500	-42.506	0.100
794.600	-26.227	0.100
794.700	-45.393	0.100
794.800	-30.301	0.100
794.900	-41.771	0.100
795.000	-42.975	0.100
795.100	-51.570	0.100
795.200	-44.966	0.100
795.300	-38.642	0.100
795.400	-48.380	0.100
795.500	-33.718	0.100
795.600	-31.883	0.100
795.700	-61.525	0.100
795.800	-36.774	0.100
795.900	-50.875	0.100
796.000	-28.384	0.100
796.100	-42.768	0.100
796.200	-30.093	0.100
796.300	-34.797	0.100
796.400	-28.030	0.100
796.500	-40.332	0.100
796.600	-28.888	0.100
796.700	-50.445	0.100
796.800	-22.355	0.100
796.900	-37.970	0.100
797.000	-42.884	0.100
797.100	-37.350	0.100
797.200	-45.025	0.100
797.300	-31.054	0.100
797.400	-31.917	0.100
797.500	-51.592	0.100
797.600	-38.309	0.100
797.700	-35.324	0.100
797.800	-41.292	0.100
797.900	-42.390	0.100
798.000	-44.960	0.100
798.100	-49.065	0.100
798.200	-33.794	0.100
798.300	-30.970	0.100
798.400	-43.447	0.100
798.500	-31.161	0.100
798.600	-45.857	0.100
798.700	-40.696	0.100
798.800	-37.760	0.100
798.900	-35.757	0.100
799.000	-42.859	0.100
799.100	-31.779	0.100
799.200	-38.931	0.100
799.300	-37.356	0.100
799.400	-35.002	0.100
799.500	-29.742	0.100
799.600	-35.903	0.100
799.700	-31.630	0.100
799.800	-40.536	0.100
799.900	-20.950	0.100
800.000	-37.324	0.100
