time /s	I /nA	E /V
0.100	34.131	0.100
0.200	11.243	0.100
0.300	16.065	0.100
0.400	37.345	0.100
0.500	21.793	0.100
0.600	21.821	0.100
0.700	15.086	0.100
0.800	17.868	0.100
0.900	4.852	0.100
1.000	19.473	0.100
1.100	20.904	0.100
1.200	17.686	0.100
1.300	21.399	0.100
1.400	35.843	0.100
1.500	8.220	0.100
1.600	26.760	0.100
1.700	35.543	0.100
1.800	22.529	0.100
1.900	12.090	0.100
2.000	15.447	0.100
2.100	6.804	0.100
2.200	30.099	0.100
2.300	10.910	0.100
2.400	33.138	0.100
2.500	-2.802	0.100
2.600	18.131	0.100
2.700	7.538	0.100
2.800	12.089	0.100
2.900	19.617	0.100
3.000	10.021	0.100
3.100	19.654	0.100
3.200	25.114	0.100
3.300	19.723	0.100
3.400	39.150	0.100
3.500	18.240	0.100
3.600	14.708	0.100
3.700	16.568	0.100
3.800	20.952	0.100
3.900	19.820	0.100
4.000	9.158	0.100
4.100	25.005	0.100
4.200	10.481	0.100
4.300	9.382	0.100
4.400	26.428	0.100
4.500	20.428	0.100
4.600	2.010	0.100
4.700	5.174	0.100
4.800	28.494	0.100
4.900	17.739	0.100
5.000	19.990	0.100
5.100	11.756	0.100
5.200	17.224	0.100
5.300	29.253	0.100
5.400	14.716	0.100
5.500	6.015	0.100
5.600	26.421	0.100
5.700	-8.256	0.100
5.800	16.500	0.100
5.900	18.704	0.100
6.000	18.559	0.100
6.100	23.942	0.100
6.200	17.557	0.100
6.300	6.997	0.100
6.400	7.144	0.100
6.500	25.734	0.100
6.600	30.180	0.100
6.700	6.136	0.100
6.800	27.961	0.100
6.900	14.949	0.100
7.000	34.500	0.100
7.100	11.526	0.100
7.200	6.102	0.100
7.300	20.935	0.100
7.400	16.826	0.100
7.500	23.079	0.100
7.600	6.503	0.100
7.700	3.873	0.100
7.800	22.153	0.100
7.900	12.120	0.100
8.000	12.110	0.100
8.100	10.363	0.100
8.200	15.787	0.100
8.300	19.464	0.100
8.400	14.027	0.100
8.500	12.906	0.100
8.600	9.187	0.100
8.700	-1.933	0.100
8.800	23.132	0.100
8.900	27.055	0.100
9.000	-1.460	0.100
9.100	19.314	0.100
9.200	18.387	0.100
9.300	25.372	0.100
9.400	6.725	0.100
9.500	-18.672	0.100
9.600	10.340	0.100
9.700	13.657	0.100
9.800	12.438	0.100
9.900	23.147	0.100
10.000	13.039	0.100
10.100	13.823	0.100
10.200	18.151	0.100
10.300	18.988	0.100
10.400	20.671	0.100
10.500	10.377	0.100
10.600	17.341	0.100
10.700	18.582	0.100
10.800	18.291	0.100
10.900	27.951	0.100
11.000	5.231	0.100
11.100	24.430	0.100
11.200	19.720	0.100
11.300	7.205	0.100
11.400	8.937	0.100
11.500	11.954	0.100
11.600	19.930	0.100
11.700	13.950	0.100
11.800	7.599	0.100
11.900	3.693	0.100
12.000	27.907	0.100
12.100	18.016	0.100
12.200	17.838	0.100
12.300	16.829	0.100
12.400	34.106	0.100
12.500	7.173	0.100
12.600	23.543	0.100
12.700	10.640	0.100
12.800	16.372	0.100
12.900	15.960	0.100
13.000	21.218	0.100
13.100	11.108	0.100
13.200	20.437	0.100
13.300	13.706	0.100
13.400	-5.817	0.100
13.500	26.766	0.100
13.600	13.154	0.100
13.700	31.054	0.100
13.800	4.800	0.100
13.900	24.158	0.100
14.000	19.208	0.100
14.100	27.077	0.100
14.200	4.770	0.100
14.300	12.925	0.100
14.400	16.856	0.100
14.500	7.955	0.100
14.600	16.675	0.100
14.700	7.670	0.100
14.800	3.550	0.100
14.900	7.283	0.100
15.000	12.493	0.100
15.100	16.060	0.100
15.200	1.811	0.100
15.300	15.540	0.100
15.400	28.781	0.100
15.500	10.519	0.100
15.600	4.443	0.100
15.700	25.831	0.100
15.800	11.754	0.100
15.900	8.252	0.100
16.000	19.515	0.100
16.100	26.048	0.100
16.200	9.142	0.100
16.300	11.645	0.100
16.400	13.938	0.100
16.500	19.389	0.100
16.600	8.033	0.100
16.700	11.767	0.100
16.800	3.315	0.100
16.900	13.518	0.100
17.000	21.241	0.100
17.100	18.348	0.100
17.200	6.496	0.100
17.300	15.375	0.100
17.400	6.814	0.100
17.500	15.005	0.100
17.600	9.171	0.100
17.700	-7.690	0.100
17.800	12.477	0.100
17.900	16.883	0.100
18.000	24.780	0.100
18.100	14.293	0.100
18.200	15.479	0.100
18.300	-2.161	0.100
18.400	17.531	0.100
18.500	17.403	0.100
18.600	26.364	0.100
18.700	16.340	0.100
18.800	-0.196	0.100
18.900	18.634	0.100
19.000	2.902	0.100
19.100	14.779	0.100
19.200	37.943	0.100
19.300	-6.915	0.100
19.400	16.752	0.100
19.500	8.812	0.100
19.600	17.844	0.100
19.700	24.015	0.100
19.800	14.034	0.100
19.900	6.328	0.100
20.000	19.003	0.100
20.100	10.943	0.100
20.200	19.662	0.100
20.300	10.434	0.100
20.400	20.582	0.100
20.500	13.434	0.100
20.600	4.776	0.100
20.700	25.227	0.100
20.800	5.867	0.100
20.900	9.689	0.100
21.000	-0.851	0.100
21.100	9.689	0.100
21.200	22.842	0.100
21.300	13.155	0.100
21.400	26.799	0.100
21.500	9.090	0.100
21.600	14.212	0.100
21.700	9.599	0.100
21.800	13.838	0.100
21.900	12.159	0.100
22.000	12.298	0.100
22.100	8.962	0.100
22.200	9.451	0.100
22.300	9.628	0.100
22.400	-10.820	0.100
22.500	23.148	0.100
22.600	15.269	0.100
22.700	22.568	0.100
22.800	6.427	0.100
22.900	9.370	0.100
23.000	15.601	0.100
23.100	-10.626	0.100
23.200	6.868	0.100
23.300	15.068	0.100
23.400	0.549	0.100
23.500	0.574	0.100
23.600	13.983	0.100
23.700	11.948	0.100
23.800	5.709	0.100
23.900	11.930	0.100
24.000	10.798	0.100
24.100	6.473	0.100
24.200	23.401	0.100
24.300	15.553	0.100
24.400	-0.535	0.100
24.500	0.478	0.100
24.600	7.530	0.100
24.700	12.103	0.100
24.800	12.057	0.100
24.900	1.810	0.100
25.000	13.565	0.100
25.100	16.717	0.100
25.200	5.695	0.100
25.300	4.170	0.100
25.400	13.246	0.100
25.500	3.711	0.100
25.600	21.422	0.100
25.700	23.661	0.100
25.800	3.499	0.100
25.900	0.207	0.100
26.000	36.633	0.100
26.100	3.978	0.100
26.200	-5.497	0.100
26.300	0.510	0.100
26.400	3.417	0.100
26.500	32.105	0.100
26.600	12.401	0.100
26.700	9.117	0.100
26.800	18.039	0.100
26.900	28.125	0.100
27.000	4.199	0.100
27.100	4.579	0.100
27.200	6.718	0.100
27.300	6.717	0.100
27.400	5.898	0.100
27.500	20.934	0.100
27.600	6.621	0.100
27.700	8.561	0.100
27.800	17.886	0.100
27.900	5.247	0.100
28.000	10.199	0.100
28.100	4.298	0.100
28.200	16.283	0.100
28.300	8.788	0.100
28.400	8.645	0.100
28.500	25.067	0.100
28.600	15.604	0.100
28.700	3.406	0.100
28.800	19.182	0.100
28.900	18.356	0.100
29.000	2.612	0.100
29.100	10.620	0.100
29.200	29.049	0.100
29.300	28.364	0.100
29.400	9.129	0.100
29.500	17.597	0.100
29.600	19.435	0.100
29.700	5.933	0.100
29.800	24.243	0.100
29.900	29.359	0.100
30.000	27.538	0.100
30.100	14.139	0.100
30.200	19.227	0.100
30.300	16.165	0.100
30.400	12.843	0.100
30.500	2.868	0.100
30.600	15.676	0.100
30.700	7.310	0.100
30.800	31.296	0.100
30.900	23.026	0.100
31.000	24.407	0.100
31.100	29.277	0.100
31.200	25.486	0.100
31.300	4.863	0.100
31.400	26.335	0.100
31.500	15.162	0.100
31.600	19.028	0.100
31.700	18.892	0.100
31.800	10.483	0.100
31.900	12.665	0.100
32.000	14.328	0.100
32.100	17.364	0.100
32.200	11.245	0.100
32.300	22.005	0.100
32.400	22.789	0.100
32.500	15.647	0.100
32.600	26.123	0.100
32.700	25.650	0.100
32.800	34.048	0.100
32.900	2.811	0.100
33.000	27.636	0.100
33.100	5.148	0.100
33.200	28.202	0.100
33.300	5.418	0.100
33.400	17.580	0.100
33.500	14.440	0.100
33.600	17.290	0.100
33.700	32.249	0.100
33.800	28.611	0.100
33.900	6.451	0.100
34.000	25.262	0.100
34.100	18.644	0.100
34.200	23.872	0.100
34.300	20.891	0.100
34.400	18.644	0.100
34.500	13.254	0.100
34.600	23.719	0.100
34.700	19.859	0.100
34.800	29.461	0.100
34.900	15.698	0.100
35.000	16.751	0.100
35.100	18.729	0.100
35.200	19.542	0.100
35.300	20.033	0.100
35.400	3.595	0.100
35.500	15.257	0.100
35.600	18.441	0.100
35.700	13.810	0.100
35.800	13.953	0.100
35.900	31.634	0.100
36.000	11.552	0.100
36.100	12.736	0.100
36.200	15.074	0.100
36.300	5.216	0.100
36.400	23.156	0.100
36.500	20.347	0.100
36.600	20.882	0.100
36.700	18.484	0.100
36.800	32.742	0.100
36.900	21.411	0.100
37.000	0.894	0.100
37.100	21.472	0.100
37.200	21.411	0.100
37.300	33.532	0.100
37.400	13.770	0.100
37.500	26.358	0.100
37.600	27.691	0.100
37.700	20.900	0.100
37.800	16.335	0.100
37.900	15.384	0.100
38.000	20.623	0.100
38.100	27.397	0.100
38.200	6.475	0.100
38.300	15.261	0.100
38.400	32.794	0.100
38.500	18.077	0.100
38.600	23.705	0.100
38.700	9.092	0.100
38.800	12.350	0.100
38.900	29.273	0.100
39.000	14.790	0.100
39.100	16.418	0.100
39.200	14.902	0.100
39.300	41.666	0.100
39.400	26.348	0.100
39.500	23.893	0.100
39.600	17.670	0.100
39.700	23.304	0.100
39.800	31.724	0.100
39.900	14.726	0.100
40.000	21.026	0.100
40.100	16.978	0.100
40.200	25.432	0.100
40.300	28.755	0.100
40.400	23.911	0.100
40.500	22.607	0.100
40.600	5.556	0.100
40.700	32.653	0.100
40.800	12.091	0.100
40.900	36.855	0.100
41.000	23.774	0.100
41.100	7.089	0.100
41.200	17.181	0.100
41.300	-3.684	0.100
41.400	13.963	0.100
41.500	21.238	0.100
41.600	23.640	0.100
41.700	21.964	0.100
41.800	33.255	0.100
41.900	27.143	0.100
42.000	15.063	0.100
42.100	13.739	0.100
42.200	15.140	0.100
42.300	30.072	0.100
42.400	21.173	0.100
42.500	7.063	0.100
42.600	7.647	0.100
42.700	18.242	0.100
42.800	21.561	0.100
42.900	22.065	0.100
43.000	41.565	0.100
43.100	11.406	0.100
43.200	23.303	0.100
43.300	10.713	0.100
43.400	28.205	0.100
43.500	5.604	0.100
43.600	42.140	0.100
43.700	20.701	0.100
43.800	17.231	0.100
43.900	25.305	0.100
44.000	31.813	0.100
44.100	19.368	0.100
44.200	31.701	0.100
44.300	39.893	0.100
44.400	32.544	0.100
44.500	30.628	0.100
44.600	13.579	0.100
44.700	20.393	0.100
44.800	5.000	0.100
44.900	15.079	0.100
45.000	10.501	0.100
45.100	23.324	0.100
45.200	32.373	0.100
45.300	27.424	0.100
45.400	12.477	0.100
45.500	35.764	0.100
45.600	11.481	0.100
45.700	23.302	0.100
45.800	25.698	0.100
45.900	29.666	0.100
46.000	35.957	0.100
46.100	11.178	0.100
46.200	35.505	0.100
46.300	27.706	0.100
46.400	11.015	0.100
46.500	23.124	0.100
46.600	24.998	0.100
46.700	19.860	0.100
46.800	15.805	0.100
46.900	34.230	0.100
47.000	24.053	0.100
47.100	33.726	0.100
47.200	1.910	0.100
47.300	34.805	0.100
47.400	24.071	0.100
47.500	17.248	0.100
47.600	5.450	0.100
47.700	21.552	0.100
47.800	22.392	0.100
47.900	22.162	0.100
48.000	21.592	0.100
48.100	12.834	0.100
48.200	30.334	0.100
48.300	30.967	0.100
48.400	13.856	0.100
48.500	24.521	0.100
48.600	33.417	0.100
48.700	31.171	0.100
48.800	14.716	0.100
48.900	33.817	0.100
49.000	1.221	0.100
49.100	25.718	0.100
49.200	25.500	0.100
49.300	23.069	0.100
49.400	11.215	0.100
49.500	22.247	0.100
49.600	32.970	0.100
49.700	29.650	0.100
49.800	19.260	0.100
49.900	15.875	0.100
50.000	6.711	0.100
50.100	23.881	0.100
50.200	19.323	0.100
50.300	29.920	0.100
50.400	12.111	0.100
50.500	24.095	0.100
50.600	27.892	0.100
50.700	22.756	0.100
50.800	19.693	0.100
50.900	45.769	0.100
51.000	18.575	0.100
51.100	26.047	0.100
51.200	13.268	0.100
51.300	43.896	0.100
51.400	26.471	0.100
51.500	22.629	0.100
51.600	4.580	0.100
51.700	22.151	0.100
51.800	14.006	0.100
51.900	14.411	0.100
52.000	24.069	0.100
52.100	40.167	0.100
52.200	17.964	0.100
52.300	16.216	0.100
52.400	20.708	0.100
52.500	25.824	0.100
52.600	37.502	0.100
52.700	19.137	0.100
52.800	30.181	0.100
52.900	27.606	0.100
53.000	30.314	0.100
53.100	22.703	0.100
53.200	30.580	0.100
53.300	27.225	0.100
53.400	13.534	0.100
53.500	16.654	0.100
53.600	17.862	0.100
53.700	37.337	0.100
53.800	40.457	0.100
53.900	19.375	0.100
54.000	22.418	0.100
54.100	12.185	0.100
54.200	20.057	0.100
54.300	17.883	0.100
54.400	21.740	0.100
54.500	27.302	0.100
54.600	25.635	0.100
54.700	20.078	0.100
54.800	9.967	0.100
54.900	43.025	0.100
55.000	23.439	0.100
55.100	24.677	0.100
55.200	20.280	0.100
55.300	12.871	0.100
55.400	25.809	0.100
55.500	41.223	0.100
55.600	8.494	0.100
55.700	20.809	0.100
55.800	20.300	0.100
55.900	20.745	0.100
56.000	10.232	0.100
56.100	19.963	0.100
56.200	25.729	0.100
56.300	11.841	0.100
56.400	26.316	0.100
56.500	15.128	0.100
56.600	6.976	0.100
56.700	27.850	0.100
56.800	2.252	0.100
56.900	19.185	0.100
57.000	22.793	0.100
57.100	15.488	0.100
57.200	24.787	0.100
57.300	18.357	0.100
57.400	22.256	0.100
57.500	15.855	0.100
57.600	10.525	0.100
57.700	15.010	0.100
57.800	27.920	0.100
57.900	13.252	0.100
58.000	31.781	0.100
58.100	41.077	0.100
58.200	18.662	0.100
58.300	11.458	0.100
58.400	-1.682	0.100
58.500	11.939	0.100
58.600	19.010	0.100
58.700	19.152	0.100
58.800	29.657	0.100
58.900	11.491	0.100
59.000	21.778	0.100
59.100	30.233	0.100
59.200	22.530	0.100
59.300	29.484	0.100
59.400	20.912	0.100
59.500	27.301	0.100
59.600	17.210	0.100
59.700	15.015	0.100
59.800	8.251	0.100
59.900	27.007	0.100
60.000	16.346	0.100
60.100	17.509	0.100
60.200	7.703	0.100
60.300	18.187	0.100
60.400	21.665	0.100
60.500	10.299	0.100
60.600	31.559	0.100
60.700	15.477	0.100
60.800	16.208	0.100
60.900	17.532	0.100
61.000	16.698	0.100
61.100	19.907	0.100
61.200	34.750	0.100
61.300	19.717	0.100
61.400	36.767	0.100
61.500	13.550	0.100
61.600	13.056	0.100
61.700	13.708	0.100
61.800	16.936	0.100
61.900	22.416	0.100
62.000	22.492	0.100
62.100	17.936	0.100
62.200	12.248	0.100
62.300	9.706	0.100
62.400	19.536	0.100
62.500	35.592	0.100
62.600	22.119	0.100
62.700	19.862	0.100
62.800	22.156	0.100
62.900	21.299	0.100
63.000	21.600	0.100
63.100	9.218	0.100
63.200	35.949	0.100
63.300	6.893	0.100
63.400	29.734	0.100
63.500	18.836	0.100
63.600	28.710	0.100
63.700	25.759	0.100
63.800	32.143	0.100
63.900	12.188	0.100
64.000	2.241	0.100
64.100	26.509	0.100
64.200	13.834	0.100
64.300	15.848	0.100
64.400	21.556	0.100
64.500	9.885	0.100
64.600	13.089	0.100
64.700	12.894	0.100
64.800	28.741	0.100
64.900	0.068	0.100
65.000	25.550	0.100
65.100	26.998	0.100
65.200	0.856	0.100
65.300	12.129	0.100
65.400	29.339	0.100
65.500	14.202	0.100
65.600	23.154	0.100
65.700	27.737	0.100
65.800	18.757	0.100
65.900	7.402	0.100
66.000	18.533	0.100
66.100	26.697	0.100
66.200	22.562	0.100
66.300	30.094	0.100
66.400	7.454	0.100
66.500	25.216	0.100
66.600	2.463	0.100
66.700	28.837	0.100
66.800	23.815	0.100
66.900	25.246	0.100
67.000	18.618	0.100
67.100	20.033	0.100
67.200	11.913	0.100
67.300	25.233	0.100
67.400	17.778	0.100
67.500	14.506	0.100
67.600	13.217	0.100
67.700	25.966	0.100
67.800	6.561	0.100
67.900	29.652	0.100
68.000	27.573	0.100
68.100	22.585	0.100
68.200	19.699	0.100
68.300	10.598	0.100
68.400	13.802	0.100
68.500	15.623	0.100
68.600	26.603	0.100
68.700	13.594	0.100
68.800	14.804	0.100
68.900	28.034	0.100
69.000	30.343	0.100
69.100	36.792	0.100
69.200	15.955	0.100
69.300	24.916	0.100
69.400	11.260	0.100
69.500	23.671	0.100
69.600	25.473	0.100
69.700	28.062	0.100
69.800	41.706	0.100
69.900	12.133	0.100
70.000	17.482	0.100
70.100	-0.232	0.100
70.200	12.856	0.100
70.300	17.587	0.100
70.400	28.837	0.100
70.500	17.204	0.100
70.600	21.273	0.100
70.700	13.604	0.100
70.800	30.527	0.100
70.900	8.113	0.100
71.000	12.751	0.100
71.100	18.903	0.100
71.200	23.555	0.100
71.300	26.928	0.100
71.400	13.262	0.100
71.500	-1.787	0.100
71.600	33.092	0.100
71.700	14.408	0.100
71.800	33.082	0.100
71.900	16.407	0.100
72.000	28.969	0.100
72.100	11.972	0.100
72.200	7.350	0.100
72.300	28.662	0.100
72.400	17.963	0.100
72.500	14.457	0.100
72.600	22.909	0.100
72.700	15.880	0.100
72.800	16.086	0.100
72.900	25.237	0.100
73.000	10.618	0.100
73.100	7.845	0.100
73.200	27.183	0.100
73.300	12.609	0.100
73.400	17.051	0.100
73.500	8.873	0.100
73.600	22.816	0.100
73.700	9.988	0.100
73.800	17.546	0.100
73.900	25.661	0.100
74.000	16.122	0.100
74.100	8.683	0.100
74.200	3.381	0.100
74.300	18.808	0.100
74.400	16.207	0.100
74.500	25.354	0.100
74.600	19.439	0.100
74.700	23.942	0.100
74.800	3.357	0.100
74.900	32.735	0.100
75.000	21.368	0.100
75.100	12.231	0.100
75.200	11.986	0.100
75.300	28.647	0.100
75.400	8.329	0.100
75.500	32.168	0.100
75.600	11.626	0.100
75.700	16.274	0.100
75.800	26.216	0.100
75.900	28.821	0.100
76.000	29.672	0.100
76.100	9.906	0.100
76.200	20.722	0.100
76.300	27.085	0.100
76.400	12.777	0.100
76.500	13.118	0.100
76.600	20.286	0.100
76.700	-5.759	0.100
76.800	18.060	0.100
76.900	19.507	0.100
77.000	18.232	0.100
77.100	23.739	0.100
77.200	27.080	0.100
77.300	11.931	0.100
77.400	16.008	0.100
77.500	7.384	0.100
77.600	28.615	0.100
77.700	18.119	0.100
77.800	15.617	0.100
77.900	10.631	0.100
78.000	25.807	0.100
78.100	19.493	0.100
78.200	29.715	0.100
78.300	7.790	0.100
78.400	16.378	0.100
78.500	14.854	0.100
78.600	7.526	0.100
78.700	10.979	0.100
78.800	4.765	0.100
78.900	14.378	0.100
79.000	19.946	0.100
79.100	4.551	0.100
79.200	15.700	0.100
79.300	22.709	0.100
79.400	24.580	0.100
79.500	20.938	0.100
79.600	24.060	0.100
79.700	9.977	0.100
79.800	30.466	0.100
79.900	13.561	0.100
80.000	22.025	0.100
80.100	20.631	0.100
80.200	21.406	0.100
80.300	3.732	0.100
80.400	14.744	0.100
80.500	15.972	0.100
80.600	18.432	0.100
80.700	20.857	0.100
80.800	21.426	0.100
80.900	24.211	0.100
81.000	14.476	0.100
81.100	9.140	0.100
81.200	11.247	0.100
81.300	14.231	0.100
81.400	14.610	0.100
81.500	16.784	0.100
81.600	20.063	0.100
81.700	17.545	0.100
81.800	13.280	0.100
81.900	5.871	0.100
82.000	27.421	0.100
82.100	10.684	0.100
82.200	14.981	0.100
82.300	9.414	0.100
82.400	14.144	0.100
82.500	5.419	0.100
82.600	5.926	0.100
82.700	23.831	0.100
82.800	24.578	0.100
82.900	12.806	0.100
83.000	7.197	0.100
83.100	23.393	0.100
83.200	35.487	0.100
83.300	18.167	0.100
83.400	22.929	0.100
83.500	6.332	0.100
83.600	21.946	0.100
83.700	6.827	0.100
83.800	11.658	0.100
83.900	33.967	0.100
84.000	24.007	0.100
84.100	13.049	0.100
84.200	12.084	0.100
84.300	25.803	0.100
84.400	14.066	0.100
84.500	5.838	0.100
84.600	27.405	0.100
84.700	9.358	0.100
84.800	25.577	0.100
84.900	24.667	0.100
85.000	9.609	0.100
85.100	19.814	0.100
85.200	16.478	0.100
85.300	3.087	0.100
85.400	14.543	0.100
85.500	15.728	0.100
85.600	27.103	0.100
85.700	15.078	0.100
85.800	20.733	0.100
85.900	12.615	0.100
86.000	12.102	0.100
86.100	2.540	0.100
86.200	20.206	0.100
86.300	35.231	0.100
86.400	9.446	0.100
86.500	22.858	0.100
86.600	22.645	0.100
86.700	8.687	0.100
86.800	29.498	0.100
86.900	8.268	0.100
87.000	16.492	0.100
87.100	-1.806	0.100
87.200	18.600	0.100
87.300	18.108	0.100
87.400	18.295	0.100
87.500	15.181	0.100
87.600	11.801	0.100
87.700	23.397	0.100
87.800	29.638	0.100
87.900	-0.519	0.100
88.000	18.631	0.100
88.100	20.569	0.100
88.200	13.213	0.100
88.300	18.249	0.100
88.400	21.863	0.100
88.500	25.710	0.100
88.600	25.662	0.100
88.700	-4.395	0.100
88.800	-1.839	0.100
88.900	5.122	0.100
89.000	14.046	0.100
89.100	15.295	0.100
89.200	14.927	0.100
89.300	11.439	0.100
89.400	7.639	0.100
89.500	16.651	0.100
89.600	16.551	0.100
89.700	15.594	0.100
89.800	12.330	0.100
89.900	23.039	0.100
90.000	7.977	0.100
90.100	18.756	0.100
90.200	7.368	0.100
90.300	-8.200	0.100
90.400	7.137	0.100
90.500	12.361	0.100
90.600	18.003	0.100
90.700	8.352	0.100
90.800	17.469	0.100
90.900	0.348	0.100
91.000	8.953	0.100
91.100	13.705	0.100
91.200	15.251	0.100
91.300	18.027	0.100
91.400	8.617	0.100
91.500	11.844	0.100
91.600	13.691	0.100
91.700	7.927	0.100
91.800	4.637	0.100
91.900	22.115	0.100
92.000	22.408	0.100
92.100	16.825	0.100
92.200	9.049	0.100
92.300	-8.510	0.100
92.400	6.172	0.100
92.500	13.804	0.100
92.600	14.843	0.100
92.700	10.313	0.100
92.800	8.868	0.100
92.900	7.267	0.100
93.000	-10.718	0.100
93.100	12.678	0.100
93.200	16.007	0.100
93.300	13.698	0.100
93.400	9.128	0.100
93.500	-18.726	0.100
93.600	17.553	0.100
93.700	8.479	0.100
93.800	23.749	0.100
93.900	24.836	0.100
94.000	29.253	0.100
94.100	14.788	0.100
94.200	5.915	0.100
94.300	-2.682	0.100
94.400	0.049	0.100
94.500	26.666	0.100
94.600	2.084	0.100
94.700	2.173	0.100
94.800	4.026	0.100
94.900	14.565	0.100
95.000	5.603	0.100
95.100	8.435	0.100
95.200	1.793	0.100
95.300	17.829	0.100
95.400	-1.601	0.100
95.500	19.312	0.100
95.600	11.081	0.100
95.700	11.204	0.100
95.800	-17.185	0.100
95.900	0.125	0.100
96.000	1.185	0.100
96.100	23.106	0.100
96.200	23.969	0.100
96.300	20.125	0.100
96.400	5.992	0.100
96.500	2.939	0.100
96.600	-4.984	0.100
96.700	11.394	0.100
96.800	10.086	0.100
96.900	6.282	0.100
97.000	19.997	0.100
97.100	13.588	0.100
97.200	11.372	0.100
97.300	7.324	0.100
97.400	26.320	0.100
97.500	6.434	0.100
97.600	6.987	0.100
97.700	14.083	0.100
97.800	-9.108	0.100
97.900	2.151	0.100
98.000	15.383	0.100
98.100	23.074	0.100
98.200	10.693	0.100
98.300	-0.677	0.100
98.400	8.288	0.100
98.500	5.676	0.100
98.600	-20.575	0.100
98.700	1.271	0.100
98.800	-1.102	0.100
98.900	8.160	0.100
99.000	0.603	0.100
99.100	0.720	0.100
99.200	7.796	0.100
99.300	13.580	0.100
99.400	-4.334	0.100
99.500	-0.343	0.100
99.600	14.682	0.100
99.700	20.454	0.100
99.800	3.810	0.100
99.900	4.562	0.100
100.000	5.375	0.100
100.100	-13.897	0.100
100.200	6.450	0.100
100.300	-1.234	0.100
100.400	13.889	0.100
100.500	8.187	0.100
100.600	-7.147	0.100
100.700	-4.561	0.100
100.800	3.710	0.100
100.900	6.266	0.100
101.000	-15.968	0.100
101.100	-11.426	0.100
101.200	0.405	0.100
101.300	-1.192	0.100
101.400	4.476	0.100
101.500	8.410	0.100
101.600	-7.906	0.100
101.700	16.965	0.100
101.800	-1.297	0.100
101.900	-2.225	0.100
102.000	1.347	0.100
102.100	1.055	0.100
102.200	3.388	0.100
102.300	-3.444	0.100
102.400	-5.121	0.100
102.500	-4.756	0.100
102.600	12.284	0.100
102.700	-3.761	0.100
102.800	5.774	0.100
102.900	14.345	0.100
103.000	10.611	0.100
103.100	7.754	0.100
103.200	0.918	0.100
103.300	-8.231	0.100
103.400	-1.818	0.100
103.500	3.738	0.100
103.600	0.984	0.100
103.700	4.700	0.100
103.800	8.640	0.100
103.900	-3.396	0.100
104.000	1.510	0.100
104.100	-3.408	0.100
104.200	0.969	0.100
104.300	1.223	0.100
104.400	6.423	0.100
104.500	-11.020	0.100
104.600	-3.658	0.100
104.700	12.958	0.100
104.800	-2.657	0.100
104.900	-9.298	0.100
105.000	-7.813	0.100
105.100	24.854	0.100
105.200	0.317	0.100
105.300	-1.441	0.100
105.400	-11.238	0.100
105.500	-2.959	0.100
105.600	-3.266	0.100
105.700	-5.048	0.100
105.800	-16.159	0.100
105.900	14.708	0.100
106.000	15.586	0.100
106.100	-4.242	0.100
106.200	-0.409	0.100
106.300	-7.275	0.100
106.400	1.951	0.100
106.500	11.072	0.100
106.600	5.867	0.100
106.700	-12.815	0.100
106.800	-9.937	0.100
106.900	12.074	0.100
107.000	11.668	0.100
107.100	-11.533	0.100
107.200	3.873	0.100
107.300	-5.878	0.100
107.400	-1.634	0.100
107.500	9.408	0.100
107.600	4.809	0.100
107.700	-1.800	0.100
107.800	-6.075	0.100
107.900	2.489	0.100
108.000	-8.243	0.100
108.100	-9.659	0.100
108.200	8.519	0.100
108.300	7.708	0.100
108.400	-24.229	0.100
108.500	10.735	0.100
108.600	13.554	0.100
108.700	-6.465	0.100
108.800	8.040	0.100
108.900	2.611	0.100
109.000	-11.028	0.100
109.100	13.406	0.100
109.200	-1.004	0.100
109.300	1.299	0.100
109.400	-7.736	0.100
109.500	1.318	0.100
109.600	-11.957	0.100
109.700	11.082	0.100
109.800	-4.027	0.100
109.900	2.028	0.100
110.000	-0.738	0.100
110.100	8.677	0.100
110.200	1.769	0.100
110.300	-4.884	0.100
110.400	11.565	0.100
110.500	-0.987	0.100
110.600	8.058	0.100
110.700	5.884	0.100
110.800	-9.536	0.100
110.900	-2.860	0.100
111.000	-0.483	0.100
111.100	-0.687	0.100
111.200	2.123	0.100
111.300	-6.243	0.100
111.400	12.859	0.100
111.500	-8.600	0.100
111.600	8.922	0.100
111.700	-6.806	0.100
111.800	-21.291	0.100
111.900	-0.347	0.100
112.000	3.336	0.100
112.100	10.894	0.100
112.200	10.703	0.100
112.300	5.566	0.100
112.400	-7.358	0.100
112.500	4.506	0.100
112.600	4.399	0.100
112.700	2.354	0.100
112.800	6.987	0.100
112.900	-11.496	0.100
113.000	6.244	0.100
113.100	14.190	0.100
113.200	-2.381	0.100
113.300	-22.732	0.100
113.400	12.124	0.100
113.500	20.007	0.100
113.600	-7.365	0.100
113.700	-14.070	0.100
113.800	0.409	0.100
113.900	21.458	0.100
114.000	-2.067	0.100
114.100	-5.505	0.100
114.200	2.906	0.100
114.300	1.500	0.100
114.400	17.489	0.100
114.500	-0.969	0.100
114.600	-18.260	0.100
114.700	20.412	0.100
114.800	1.437	0.100
114.900	-10.427	0.100
115.000	1.219	0.100
115.100	7.043	0.100
115.200	2.185	0.100
115.300	-4.430	0.100
115.400	8.082	0.100
115.500	9.861	0.100
115.600	-1.765	0.100
115.700	0.045	0.100
115.800	1.836	0.100
115.900	15.076	0.100
116.000	-0.905	0.100
116.100	7.603	0.100
116.200	17.265	0.100
116.300	11.088	0.100
116.400	20.267	0.100
116.500	12.390	0.100
116.600	1.039	0.100
116.700	11.342	0.100
116.800	6.208	0.100
116.900	-2.965	0.100
117.000	3.695	0.100
117.100	6.428	0.100
117.200	0.230	0.100
117.300	-4.683	0.100
117.400	-3.424	0.100
117.500	0.495	0.100
117.600	4.555	0.100
117.700	1.657	0.100
117.800	-7.734	0.100
117.900	3.553	0.100
118.000	20.992	0.100
118.100	-13.014	0.100
118.200	5.102	0.100
118.300	6.156	0.100
118.400	-3.112	0.100
118.500	6.988	0.100
118.600	0.000	0.100
118.700	-7.926	0.100
118.800	7.035	0.100
118.900	-12.699	0.100
119.000	-10.087	0.100
119.100	-5.642	0.100
119.200	5.568	0.100
119.300	-12.365	0.100
119.400	-6.913	0.100
119.500	-7.645	0.100
119.600	17.796	0.100
119.700	-5.322	0.100
119.800	7.094	0.100
119.900	5.034	0.100
120.000	1.600	0.100
120.100	3.822	0.100
120.200	0.672	0.100
120.300	23.864	0.100
120.400	11.937	0.100
120.500	5.364	0.100
120.600	-1.741	0.100
120.700	8.710	0.100
120.800	7.718	0.100
120.900	-8.382	0.100
121.000	-5.014	0.100
121.100	5.868	0.100
121.200	-5.659	0.100
121.300	-7.002	0.100
121.400	-7.823	0.100
121.500	14.171	0.100
121.600	5.251	0.100
121.700	6.085	0.100
121.800	0.587	0.100
121.900	0.261	0.100
122.000	-11.444	0.100
122.100	-8.646	0.100
122.200	6.557	0.100
122.300	6.340	0.100
122.400	-3.990	0.100
122.500	2.104	0.100
122.600	-13.260	0.100
122.700	7.599	0.100
122.800	11.878	0.100
122.900	5.972	0.100
123.000	7.444	0.100
123.100	-4.351	0.100
123.200	16.277	0.100
123.300	-1.100	0.100
123.400	-1.936	0.100
123.500	-19.960	0.100
123.600	11.757	0.100
123.700	6.438	0.100
123.800	6.244	0.100
123.900	-1.872	0.100
124.000	-3.667	0.100
124.100	-3.765	0.100
124.200	-9.231	0.100
124.300	3.323	0.100
124.400	17.133	0.100
124.500	7.592	0.100
124.600	6.618	0.100
124.700	-13.718	0.100
124.800	6.112	0.100
124.900	-7.502	0.100
125.000	-4.356	0.100
125.100	-5.627	0.100
125.200	1.501	0.100
125.300	13.611	0.100
125.400	1.784	0.100
125.500	10.410	0.100
125.600	-2.679	0.100
125.700	5.298	0.100
125.800	-0.721	0.100
125.900	12.611	0.100
126.000	-3.196	0.100
126.100	-6.611	0.100
126.200	-18.705	0.100
126.300	-4.241	0.100
126.400	8.221	0.100
126.500	5.976	0.100
126.600	8.706	0.100
126.700	-2.197	0.100
126.800	7.353	0.100
126.900	10.151	0.100
127.000	-6.647	0.100
127.100	3.899	0.100
127.200	-12.958	0.100
127.300	5.040	0.100
127.400	9.036	0.100
127.500	-3.607	0.100
127.600	-13.351	0.100
127.700	21.074	0.100
127.800	4.852	0.100
127.900	-4.152	0.100
128.000	0.496	0.100
128.100	2.375	0.100
128.200	14.809	0.100
128.300	0.012	0.100
128.400	8.583	0.100
128.500	12.450	0.100
128.600	11.248	0.100
128.700	-18.405	0.100
128.800	5.557	0.100
128.900	9.076	0.100
129.000	-2.345	0.100
129.100	8.848	0.100
129.200	7.335	0.100
129.300	-10.372	0.100
129.400	-9.803	0.100
129.500	-8.143	0.100
129.600	-10.620	0.100
129.700	9.758	0.100
129.800	10.436	0.100
129.900	-10.444	0.100
130.000	10.028	0.100
130.100	-3.927	0.100
130.200	-3.316	0.100
130.300	-2.291	0.100
130.400	16.856	0.100
130.500	-0.461	0.100
130.600	6.774	0.100
130.700	6.458	0.100
130.800	17.823	0.100
130.900	-14.323	0.100
131.000	20.636	0.100
131.100	-0.032	0.100
131.200	7.970	0.100
131.300	-0.066	0.100
131.400	13.484	0.100
131.500	28.888	0.100
131.600	-3.803	0.100
131.700	17.933	0.100
131.800	-11.828	0.100
131.900	1.645	0.100
132.000	9.536	0.100
132.100	-8.566	0.100
132.200	21.181	0.100
132.300	1.234	0.100
132.400	6.196	0.100
132.500	3.053	0.100
132.600	1.105	0.100
132.700	12.987	0.100
132.800	6.602	0.100
132.900	-1.085	0.100
133.000	7.556	0.100
133.100	-7.374	0.100
133.200	2.871	0.100
133.300	4.322	0.100
133.400	-5.202	0.100
133.500	6.590	0.100
133.600	-1.923	0.100
133.700	0.786	0.100
133.800	6.315	0.100
133.900	-7.766	0.100
134.000	8.853	0.100
134.100	2.318	0.100
134.200	5.074	0.100
134.300	-26.037	0.100
134.400	4.705	0.100
134.500	17.904	0.100
134.600	10.081	0.100
134.700	-7.846	0.100
134.800	1.582	0.100
134.900	6.058	0.100
135.000	-4.738	0.100
135.100	-9.104	0.100
135.200	5.660	0.100
135.300	-7.599	0.100
135.400	-12.234	0.100
135.500	2.325	0.100
135.600	-8.211	0.100
135.700	13.701	0.100
135.800	0.288	0.100
135.900	-5.629	0.100
136.000	0.172	0.100
136.100	2.854	0.100
136.200	3.743	0.100
136.300	-0.006	0.100
136.400	10.084	0.100
136.500	-3.537	0.100
136.600	16.819	0.100
136.700	12.533	0.100
136.800	6.299	0.100
136.900	-7.006	0.100
137.000	4.253	0.100
137.100	-9.971	0.100
137.200	3.231	0.100
137.300	-0.784	0.100
137.400	11.634	0.100
137.500	0.802	0.100
137.600	-0.333	0.100
137.700	8.597	0.100
137.800	-1.983	0.100
137.900	3.200	0.100
138.000	2.418	0.100
138.100	-10.498	0.100
138.200	-1.723	0.100
138.300	-5.882	0.100
138.400	4.809	0.100
138.500	-1.572	0.100
138.600	0.372	0.100
138.700	10.538	0.100
138.800	11.843	0.100
138.900	7.341	0.100
139.000	27.192	0.100
139.100	10.328	0.100
139.200	2.355	0.100
139.300	9.353	0.100
139.400	6.328	0.100
139.500	3.597	0.100
139.600	8.447	0.100
139.700	-3.126	0.100
139.800	1.591	0.100
139.900	0.867	0.100
140.000	-3.712	0.100
140.100	0.477	0.100
140.200	1.762	0.100
140.300	0.859	0.100
140.400	-1.093	0.100
140.500	1.665	0.100
140.600	5.663	0.100
140.700	-1.361	0.100
140.800	-4.998	0.100
140.900	9.678	0.100
141.000	8.824	0.100
141.100	7.922	0.100
141.200	-5.503	0.100
141.300	9.838	0.100
141.400	15.332	0.100
141.500	3.019	0.100
141.600	-5.616	0.100
141.700	8.712	0.100
141.800	7.063	0.100
141.900	-5.717	0.100
142.000	10.744	0.100
142.100	4.416	0.100
142.200	14.122	0.100
142.300	-11.179	0.100
142.400	1.117	0.100
142.500	4.217	0.100
142.600	1.168	0.100
142.700	10.787	0.100
142.800	26.341	0.100
142.900	-3.561	0.100
143.000	-5.035	0.100
143.100	7.503	0.100
143.200	5.443	0.100
143.300	0.402	0.100
143.400	17.302	0.100
143.500	-0.826	0.100
143.600	2.311	0.100
143.700	12.923	0.100
143.800	-3.403	0.100
143.900	-1.390	0.100
144.000	5.578	0.100
144.100	20.009	0.100
144.200	6.452	0.100
144.300	-15.413	0.100
144.400	7.404	0.100
144.500	0.982	0.100
144.600	-2.139	0.100
144.700	5.288	0.100
144.800	0.308	0.100
144.900	19.082	0.100
145.000	-3.045	0.100
145.100	-9.199	0.100
145.200	6.774	0.100
145.300	10.989	0.100
145.400	-12.909	0.100
145.500	2.095	0.100
145.600	1.985	0.100
145.700	8.433	0.100
145.800	22.097	0.100
145.900	3.990	0.100
146.000	-9.979	0.100
146.100	-1.713	0.100
146.200	-2.424	0.100
146.300	-1.693	0.100
146.400	14.258	0.100
146.500	6.202	0.100
146.600	5.688	0.100
146.700	12.682	0.100
146.800	8.528	0.100
146.900	-8.278	0.100
147.000	5.102	0.100
147.100	-8.999	0.100
147.200	8.534	0.100
147.300	2.690	0.100
147.400	-21.035	0.100
147.500	10.643	0.100
147.600	2.389	0.100
147.700	19.489	0.100
147.800	11.968	0.100
147.900	8.123	0.100
148.000	13.873	0.100
148.100	-4.449	0.100
148.200	-4.736	0.100
148.300	-1.433	0.100
148.400	-3.101	0.100
148.500	16.437	0.100
148.600	3.666	0.100
148.700	0.203	0.100
148.800	8.287	0.100
148.900	12.034	0.100
149.000	1.988	0.100
149.100	-13.337	0.100
149.200	13.504	0.100
149.300	4.836	0.100
149.400	-8.897	0.100
149.500	13.579	0.100
149.600	3.352	0.100
149.700	0.722	0.100
149.800	5.979	0.100
149.900	-1.775	0.100
150.000	10.952	0.100
150.100	-4.865	0.100
150.200	5.219	0.100
150.300	0.056	0.100
150.400	7.537	0.100
150.500	4.527	0.100
150.600	0.591	0.100
150.700	-0.178	0.100
150.800	12.766	0.100
150.900	10.629	0.100
151.000	-7.555	0.100
151.100	-5.961	0.100
151.200	12.128	0.100
151.300	28.440	0.100
151.400	12.693	0.100
151.500	-1.456	0.100
151.600	4.486	0.100
151.700	10.825	0.100
151.800	-3.715	0.100
151.900	3.148	0.100
152.000	4.445	0.100
152.100	5.930	0.100
152.200	19.702	0.100
152.300	15.315	0.100
152.400	2.900	0.100
152.500	11.047	0.100
152.600	4.672	0.100
152.700	-4.156	0.100
152.800	2.995	0.100
152.900	-3.930	0.100
153.000	-12.279	0.100
153.100	-4.176	0.100
153.200	9.813	0.100
153.300	0.870	0.100
153.400	19.567	0.100
153.500	-4.448	0.100
153.600	-7.825	0.100
153.700	-3.426	0.100
153.800	8.008	0.100
153.900	2.659	0.100
154.000	6.899	0.100
154.100	20.451	0.100
154.200	-24.738	0.100
154.300	5.410	0.100
154.400	10.021	0.100
154.500	2.730	0.100
154.600	-2.719	0.100
154.700	13.874	0.100
154.800	4.918	0.100
154.900	8.151	0.100
155.000	-1.078	0.100
155.100	15.123	0.100
155.200	16.569	0.100
155.300	-11.711	0.100
155.400	0.757	0.100
155.500	11.095	0.100
155.600	6.351	0.100
155.700	27.026	0.100
155.800	-2.730	0.100
155.900	14.871	0.100
156.000	12.625	0.100
156.100	7.335	0.100
156.200	-5.015	0.100
156.300	4.647	0.100
156.400	7.663	0.100
156.500	3.736	0.100
156.600	4.149	0.100
156.700	3.401	0.100
156.800	-1.649	0.100
156.900	-0.403	0.100
157.000	7.369	0.100
157.100	8.195	0.100
157.200	14.404	0.100
157.300	1.311	0.100
157.400	-0.929	0.100
157.500	9.593	0.100
157.600	7.050	0.100
157.700	1.300	0.100
157.800	14.657	0.100
157.900	0.747	0.100
158.000	-18.838	0.100
158.100	15.661	0.100
158.200	-12.357	0.100
158.300	1.838	0.100
158.400	19.399	0.100
158.500	11.338	0.100
158.600	13.612	0.100
158.700	-10.518	0.100
158.800	-1.329	0.100
158.900	-12.989	0.100
159.000	-5.247	0.100
159.100	3.237	0.100
159.200	4.909	0.100
159.300	10.656	0.100
159.400	-3.995	0.100
159.500	1.059	0.100
159.600	5.019	0.100
159.700	-7.505	0.100
159.800	14.972	0.100
159.900	4.084	0.100
160.000	2.925	0.100
160.100	13.385	0.100
160.200	11.311	0.100
160.300	1.181	0.100
160.400	11.487	0.100
160.500	15.348	0.100
160.600	-11.841	0.100
160.700	-1.696	0.100
160.800	19.247	0.100
160.900	20.442	0.100
161.000	8.914	0.100
161.100	1.185	0.100
161.200	12.075	0.100
161.300	-15.054	0.100
161.400	12.678	0.100
161.500	6.012	0.100
161.600	-2.735	0.100
161.700	-0.911	0.100
161.800	-7.058	0.100
161.900	-0.088	0.100
162.000	-3.588	0.100
162.100	19.735	0.100
162.200	5.537	0.100
162.300	1.718	0.100
162.400	-7.989	0.100
162.500	26.257	0.100
162.600	-5.133	0.100
162.700	12.166	0.100
162.800	-5.059	0.100
162.900	14.160	0.100
163.000	8.584	0.100
163.100	5.363	0.100
163.200	19.828	0.100
163.300	1.841	0.100
163.400	4.926	0.100
163.500	-1.394	0.100
163.600	-4.006	0.100
163.700	-1.701	0.100
163.800	6.462	0.100
163.900	6.237	0.100
164.000	13.145	0.100
164.100	-0.729	0.100
164.200	5.300	0.100
164.300	-9.928	0.100
164.400	-10.199	0.100
164.500	7.658	0.100
164.600	-0.543	0.100
164.700	4.429	0.100
164.800	2.852	0.100
164.900	10.481	0.100
165.000	5.752	0.100
165.100	-3.724	0.100
165.200	8.628	0.100
165.300	9.077	0.100
165.400	2.386	0.100
165.500	25.963	0.100
165.600	-2.829	0.100
165.700	13.665	0.100
165.800	11.880	0.100
165.900	-2.895	0.100
166.000	13.155	0.100
166.100	12.390	0.100
166.200	-7.221	0.100
166.300	13.036	0.100
166.400	-1.057	0.100
166.500	-4.449	0.100
166.600	26.104	0.100
166.700	10.797	0.100
166.800	13.534	0.100
166.900	-5.946	0.100
167.000	19.345	0.100
167.100	-12.780	0.100
167.200	1.519	0.100
167.300	15.330	0.100
167.400	11.445	0.100
167.500	-8.271	0.100
167.600	13.424	0.100
167.700	-11.237	0.100
167.800	7.879	0.100
167.900	5.247	0.100
168.000	3.073	0.100
168.100	6.813	0.100
168.200	-5.141	0.100
168.300	11.120	0.100
168.400	14.252	0.100
168.500	-2.078	0.100
168.600	5.968	0.100
168.700	-9.105	0.100
168.800	9.422	0.100
168.900	-5.993	0.100
169.000	15.820	0.100
169.100	10.024	0.100
169.200	-0.860	0.100
169.300	0.685	0.100
169.400	-8.283	0.100
169.500	5.615	0.100
169.600	-1.826	0.100
169.700	6.646	0.100
169.800	-3.071	0.100
169.900	-0.434	0.100
170.000	-4.853	0.100
170.100	7.844	0.100
170.200	22.372	0.100
170.300	-4.584	0.100
170.400	10.254	0.100
170.500	7.314	0.100
170.600	22.971	0.100
170.700	7.772	0.100
170.800	2.029	0.100
170.900	-1.273	0.100
171.000	-4.939	0.100
171.100	0.220	0.100
171.200	16.849	0.100
171.300	0.427	0.100
171.400	13.512	0.100
171.500	4.020	0.100
171.600	15.440	0.100
171.700	8.960	0.100
171.800	10.356	0.100
171.900	26.178	0.100
172.000	0.426	0.100
172.100	-16.341	0.100
172.200	-0.872	0.100
172.300	4.960	0.100
172.400	2.002	0.100
172.500	-18.573	0.100
172.600	14.234	0.100
172.700	1.968	0.100
172.800	8.079	0.100
172.900	2.571	0.100
173.000	0.816	0.100
173.100	5.951	0.100
173.200	-2.613	0.100
173.300	12.631	0.100
173.400	7.261	0.100
173.500	20.860	0.100
173.600	-0.301	0.100
173.700	4.886	0.100
173.800	7.245	0.100
173.900	16.448	0.100
174.000	-0.209	0.100
174.100	-1.509	0.100
174.200	4.822	0.100
174.300	10.491	0.100
174.400	-4.954	0.100
174.500	15.382	0.100
174.600	8.656	0.100
174.700	8.525	0.100
174.800	-4.703	0.100
174.900	8.788	0.100
175.000	-5.762	0.100
175.100	11.178	0.100
175.200	-0.936	0.100
175.300	5.116	0.100
175.400	10.809	0.100
175.500	-5.130	0.100
175.600	-1.946	0.100
175.700	-5.993	0.100
175.800	2.485	0.100
175.900	10.916	0.100
176.000	-0.213	0.100
176.100	16.903	0.100
176.200	-15.392	0.100
176.300	2.581	0.100
176.400	4.467	0.100
176.500	-9.933	0.100
176.600	10.548	0.100
176.700	6.593	0.100
176.800	10.151	0.100
176.900	-5.018	0.100
177.000	17.288	0.100
177.100	9.998	0.100
177.200	-2.514	0.100
177.300	-1.349	0.100
177.400	2.029	0.100
177.500	0.585	0.100
177.600	-1.773	0.100
177.700	6.138	0.100
177.800	15.299	0.100
177.900	-5.202	0.100
178.000	3.435	0.100
178.100	1.239	0.100
178.200	-8.207	0.100
178.300	5.086	0.100
178.400	17.509	0.100
178.500	11.212	0.100
178.600	6.129	0.100
178.700	-0.005	0.100
178.800	-9.827	0.100
178.900	5.662	0.100
179.000	-2.018	0.100
179.100	14.678	0.100
179.200	7.545	0.100
179.300	9.875	0.100
179.400	0.984	0.100
179.500	14.689	0.100
179.600	3.899	0.100
179.700	10.384	0.100
179.800	21.154	0.100
179.900	14.560	0.100
180.000	10.799	0.100
180.100	7.595	0.100
180.200	19.428	0.100
180.300	9.997	0.100
180.400	-4.914	0.100
180.500	14.337	0.100
180.600	14.496	0.100
180.700	12.844	0.100
180.800	22.484	0.100
180.900	16.430	0.100
181.000	22.299	0.100
181.100	-1.859	0.100
181.200	15.865	0.100
181.300	27.174	0.100
181.400	8.357	0.100
181.500	2.152	0.100
181.600	26.389	0.100
181.700	3.167	0.100
181.800	8.748	0.100
181.900	7.697	0.100
182.000	12.239	0.100
182.100	1.334	0.100
182.200	25.220	0.100
182.300	6.011	0.100
182.400	15.621	0.100
182.500	7.126	0.100
182.600	8.623	0.100
182.700	20.059	0.100
182.800	18.076	0.100
182.900	17.703	0.100
183.000	10.737	0.100
183.100	27.035	0.100
183.200	29.972	0.100
183.300	19.598	0.100
183.400	4.074	0.100
183.500	14.910	0.100
183.600	15.231	0.100
183.700	14.151	0.100
183.800	12.978	0.100
183.900	26.923	0.100
184.000	17.746	0.100
184.100	17.124	0.100
184.200	5.558	0.100
184.300	13.205	0.100
184.400	17.899	0.100
184.500	14.111	0.100
184.600	5.161	0.100
184.700	12.803	0.100
184.800	9.312	0.100
184.900	17.737	0.100
185.000	12.869	0.100
185.100	7.389	0.100
185.200	20.092	0.100
185.300	7.642	0.100
185.400	5.790	0.100
185.500	33.752	0.100
185.600	30.254	0.100
185.700	22.126	0.100
185.800	18.577	0.100
185.900	1.776	0.100
186.000	10.065	0.100
186.100	30.927	0.100
186.200	16.361	0.100
186.300	16.748	0.100
186.400	1.526	0.100
186.500	17.456	0.100
186.600	27.647	0.100
186.700	12.941	0.100
186.800	9.572	0.100
186.900	19.269	0.100
187.000	13.660	0.100
187.100	19.466	0.100
187.200	31.544	0.100
187.300	7.612	0.100
187.400	14.669	0.100
187.500	15.956	0.100
187.600	13.551	0.100
187.700	9.778	0.100
187.800	13.386	0.100
187.900	20.379	0.100
188.000	-1.903	0.100
188.100	24.492	0.100
188.200	8.365	0.100
188.300	5.844	0.100
188.400	19.449	0.100
188.500	7.211	0.100
188.600	15.873	0.100
188.700	10.603	0.100
188.800	41.914	0.100
188.900	30.261	0.100
189.000	2.102	0.100
189.100	18.358	0.100
189.200	6.012	0.100
189.300	8.614	0.100
189.400	21.961	0.100
189.500	12.505	0.100
189.600	29.738	0.100
189.700	8.044	0.100
189.800	8.671	0.100
189.900	16.369	0.100
190.000	-4.044	0.100
190.100	20.398	0.100
190.200	8.299	0.100
190.300	7.812	0.100
190.400	8.380	0.100
190.500	7.341	0.100
190.600	1.940	0.100
190.700	13.284	0.100
190.800	4.451	0.100
190.900	11.874	0.100
191.000	9.038	0.100
191.100	29.122	0.100
191.200	11.397	0.100
191.300	10.006	0.100
191.400	11.115	0.100
191.500	21.672	0.100
191.600	26.069	0.100
191.700	1.679	0.100
191.800	3.194	0.100
191.900	11.171	0.100
192.000	8.720	0.100
192.100	19.202	0.100
192.200	3.012	0.100
192.300	26.746	0.100
192.400	25.886	0.100
192.500	21.810	0.100
192.600	22.723	0.100
192.700	2.001	0.100
192.800	14.968	0.100
192.900	23.239	0.100
193.000	28.614	0.100
193.100	17.361	0.100
193.200	0.691	0.100
193.300	19.750	0.100
193.400	17.244	0.100
193.500	11.913	0.100
193.600	11.214	0.100
193.700	24.969	0.100
193.800	20.672	0.100
193.900	10.239	0.100
194.000	16.620	0.100
194.100	20.929	0.100
194.200	22.094	0.100
194.300	24.482	0.100
194.400	17.888	0.100
194.500	19.416	0.100
194.600	11.338	0.100
194.700	22.116	0.100
194.800	25.662	0.100
194.900	17.249	0.100
195.000	20.344	0.100
195.100	24.825	0.100
195.200	21.722	0.100
195.300	26.746	0.100
195.400	0.988	0.100
195.500	11.955	0.100
195.600	37.241	0.100
195.700	39.605	0.100
195.800	18.955	0.100
195.900	1.373	0.100
196.000	27.349	0.100
196.100	13.484	0.100
196.200	25.075	0.100
196.300	15.871	0.100
196.400	11.540	0.100
196.500	15.542	0.100
196.600	21.069	0.100
196.700	17.445	0.100
196.800	3.877	0.100
196.900	18.072	0.100
197.000	11.582	0.100
197.100	18.599	0.100
197.200	3.114	0.100
197.300	27.727	0.100
197.400	16.685	0.100
197.500	29.341	0.100
197.600	13.089	0.100
197.700	12.438	0.100
197.800	27.313	0.100
197.900	17.790	0.100
198.000	19.795	0.100
198.100	10.831	0.100
198.200	19.503	0.100
198.300	22.361	0.100
198.400	1.701	0.100
198.500	8.724	0.100
198.600	20.047	0.100
198.700	25.174	0.100
198.800	26.393	0.100
198.900	24.363	0.100
199.000	22.173	0.100
199.100	4.827	0.100
199.200	16.312	0.100
199.300	12.363	0.100
199.400	15.526	0.100
199.500	18.899	0.100
199.600	13.990	0.100
199.700	15.592	0.100
199.800	33.378	0.100
199.900	23.791	0.100
200.000	10.289	0.100
200.100	17.760	0.100
200.200	28.105	0.100
200.300	5.922	0.100
200.400	19.419	0.100
200.500	-3.284	0.100
200.600	9.543	0.100
200.700	18.821	0.100
200.800	18.715	0.100
200.900	-6.495	0.100
201.000	32.609	0.100
201.100	18.418	0.100
201.200	27.842	0.100
201.300	26.871	0.100
201.400	29.395	0.100
201.500	1.732	0.100
201.600	23.812	0.100
201.700	22.630	0.100
201.800	4.839	0.100
201.900	22.779	0.100
202.000	-3.623	0.100
202.100	14.029	0.100
202.200	14.941	0.100
202.300	16.950	0.100
202.400	-6.358	0.100
202.500	7.317	0.100
202.600	13.663	0.100
202.700	19.944	0.100
202.800	3.433	0.100
202.900	12.776	0.100
203.000	9.750	0.100
203.100	17.133	0.100
203.200	30.196	0.100
203.300	26.593	0.100
203.400	10.815	0.100
203.500	8.446	0.100
203.600	13.948	0.100
203.700	12.470	0.100
203.800	12.141	0.100
203.900	8.797	0.100
204.000	9.885	0.100
204.100	12.934	0.100
204.200	21.078	0.100
204.300	24.119	0.100
204.400	19.568	0.100
204.500	-6.357	0.100
204.600	28.036	0.100
204.700	15.021	0.100
204.800	13.760	0.100
204.900	23.116	0.100
205.000	-0.823	0.100
205.100	9.498	0.100
205.200	12.620	0.100
205.300	21.711	0.100
205.400	32.446	0.100
205.500	10.105	0.100
205.600	16.980	0.100
205.700	12.348	0.100
205.800	22.747	0.100
205.900	15.454	0.100
206.000	18.995	0.100
206.100	11.053	0.100
206.200	17.632	0.100
206.300	18.747	0.100
206.400	14.534	0.100
206.500	11.043	0.100
206.600	14.695	0.100
206.700	21.819	0.100
206.800	13.369	0.100
206.900	23.253	0.100
207.000	21.985	0.100
207.100	8.642	0.100
207.200	13.896	0.100
207.300	16.032	0.100
207.400	11.696	0.100
207.500	13.870	0.100
207.600	11.719	0.100
207.700	19.545	0.100
207.800	7.409	0.100
207.900	21.408	0.100
208.000	17.408	0.100
208.100	10.513	0.100
208.200	20.795	0.100
208.300	13.016	0.100
208.400	-15.897	0.100
208.500	14.676	0.100
208.600	7.401	0.100
208.700	18.252	0.100
208.800	33.932	0.100
208.900	13.718	0.100
209.000	22.129	0.100
209.100	18.920	0.100
209.200	10.428	0.100
209.300	4.758	0.100
209.400	21.727	0.100
209.500	27.770	0.100
209.600	12.758	0.100
209.700	15.804	0.100
209.800	6.965	0.100
209.900	3.116	0.100
210.000	20.200	0.100
210.100	18.815	0.100
210.200	11.539	0.100
210.300	8.788	0.100
210.400	21.005	0.100
210.500	17.492	0.100
210.600	9.634	0.100
210.700	4.620	0.100
210.800	12.410	0.100
210.900	19.581	0.100
211.000	24.024	0.100
211.100	1.286	0.100
211.200	14.876	0.100
211.300	12.373	0.100
211.400	15.514	0.100
211.500	22.366	0.100
211.600	3.088	0.100
211.700	7.748	0.100
211.800	11.692	0.100
211.900	22.055	0.100
212.000	13.043	0.100
212.100	11.292	0.100
212.200	2.512	0.100
212.300	15.519	0.100
212.400	26.855	0.100
212.500	23.280	0.100
212.600	30.450	0.100
212.700	15.909	0.100
212.800	-2.702	0.100
212.900	34.569	0.100
213.000	7.736	0.100
213.100	24.854	0.100
213.200	9.567	0.100
213.300	8.754	0.100
213.400	8.225	0.100
213.500	16.789	0.100
213.600	31.281	0.100
213.700	29.261	0.100
213.800	32.389	0.100
213.900	8.701	0.100
214.000	9.734	0.100
214.100	14.019	0.100
214.200	16.314	0.100
214.300	30.648	0.100
214.400	8.730	0.100
214.500	6.750	0.100
214.600	6.445	0.100
214.700	-0.484	0.100
214.800	12.337	0.100
214.900	21.220	0.100
215.000	8.354	0.100
215.100	9.538	0.100
215.200	18.276	0.100
215.300	28.693	0.100
215.400	3.490	0.100
215.500	16.605	0.100
215.600	11.052	0.100
215.700	22.214	0.100
215.800	13.550	0.100
215.900	4.144	0.100
216.000	0.265	0.100
216.100	16.985	0.100
216.200	19.774	0.100
216.300	18.501	0.100
216.400	11.376	0.100
216.500	25.918	0.100
216.600	14.938	0.100
216.700	5.049	0.100
216.800	5.765	0.100
216.900	7.617	0.100
217.000	13.129	0.100
217.100	21.616	0.100
217.200	6.314	0.100
217.300	15.228	0.100
217.400	18.831	0.100
217.500	34.513	0.100
217.600	26.714	0.100
217.700	6.323	0.100
217.800	-4.486	0.100
217.900	24.705	0.100
218.000	16.958	0.100
218.100	12.524	0.100
218.200	8.249	0.100
218.300	22.041	0.100
218.400	12.864	0.100
218.500	22.005	0.100
218.600	21.926	0.100
218.700	12.751	0.100
218.800	32.145	0.100
218.900	-3.307	0.100
219.000	35.885	0.100
219.100	5.683	0.100
219.200	24.681	0.100
219.300	14.313	0.100
219.400	10.374	0.100
219.500	21.218	0.100
219.600	13.954	0.100
219.700	21.997	0.100
219.800	6.328	0.100
219.900	17.960	0.100
220.000	3.878	0.100
220.100	7.278	0.100
220.200	25.288	0.100
220.300	8.949	0.100
220.400	0.543	0.100
220.500	9.733	0.100
220.600	3.725	0.100
220.700	8.336	0.100
220.800	3.180	0.100
220.900	31.887	0.100
221.000	17.294	0.100
221.100	18.994	0.100
221.200	7.464	0.100
221.300	21.136	0.100
221.400	11.623	0.100
221.500	16.233	0.100
221.600	21.744	0.100
221.700	12.703	0.100
221.800	16.787	0.100
221.900	11.867	0.100
222.000	6.047	0.100
222.100	3.103	0.100
222.200	8.670	0.100
222.300	32.639	0.100
222.400	1.535	0.100
222.500	20.922	0.100
222.600	20.699	0.100
222.700	7.509	0.100
222.800	6.848	0.100
222.900	14.518	0.100
223.000	18.287	0.100
223.100	9.711	0.100
223.200	20.121	0.100
223.300	-0.860	0.100
223.400	16.385	0.100
223.500	6.655	0.100
223.600	18.967	0.100
223.700	21.141	0.100
223.800	9.777	0.100
223.900	8.724	0.100
224.000	13.281	0.100
224.100	14.352	0.100
224.200	-5.222	0.100
224.300	3.014	0.100
224.400	11.757	0.100
224.500	-0.703	0.100
224.600	10.303	0.100
224.700	11.116	0.100
224.800	15.275	0.100
224.900	15.688	0.100
225.000	7.098	0.100
225.100	3.143	0.100
225.200	12.844	0.100
225.300	3.329	0.100
225.400	14.130	0.100
225.500	28.139	0.100
225.600	23.255	0.100
225.700	12.523	0.100
225.800	17.965	0.100
225.900	8.792	0.100
226.000	6.821	0.100
226.100	15.198	0.100
226.200	12.139	0.100
226.300	15.225	0.100
226.400	15.127	0.100
226.500	9.813	0.100
226.600	-0.313	0.100
226.700	16.197	0.100
226.800	33.016	0.100
226.900	14.545	0.100
227.000	20.079	0.100
227.100	3.462	0.100
227.200	10.174	0.100
227.300	10.409	0.100
227.400	4.358	0.100
227.500	11.272	0.100
227.600	27.178	0.100
227.700	8.118	0.100
227.800	20.078	0.100
227.900	23.174	0.100
228.000	4.858	0.100
228.100	21.758	0.100
228.200	15.213	0.100
228.300	17.753	0.100
228.400	3.549	0.100
228.500	14.509	0.100
228.600	-10.277	0.100
228.700	-2.090	0.100
228.800	9.564	0.100
228.900	7.976	0.100
229.000	16.982	0.100
229.100	21.436	0.100
229.200	13.601	0.100
229.300	22.290	0.100
229.400	8.762	0.100
229.500	24.399	0.100
229.600	5.177	0.100
229.700	-0.553	0.100
229.800	27.413	0.100
229.900	17.626	0.100
230.000	10.786	0.100
230.100	13.518	0.100
230.200	22.281	0.100
230.300	23.223	0.100
230.400	8.628	0.100
230.500	23.229	0.100
230.600	27.740	0.100
230.700	11.808	0.100
230.800	1.675	0.100
230.900	11.906	0.100
231.000	5.756	0.100
231.100	0.484	0.100
231.200	22.817	0.100
231.300	6.986	0.100
231.400	21.522	0.100
231.500	8.601	0.100
231.600	12.173	0.100
231.700	15.595	0.100
231.800	19.009	0.100
231.900	5.134	0.100
232.000	9.264	0.100
232.100	28.029	0.100
232.200	13.319	0.100
232.300	18.105	0.100
232.400	4.283	0.100
232.500	21.575	0.100
232.600	10.542	0.100
232.700	20.120	0.100
232.800	15.928	0.100
232.900	20.889	0.100
233.000	11.313	0.100
233.100	0.165	0.100
233.200	5.971	0.100
233.300	7.320	0.100
233.400	12.370	0.100
233.500	12.351	0.100
233.600	15.878	0.100
233.700	14.348	0.100
233.800	16.742	0.100
233.900	12.691	0.100
234.000	14.574	0.100
234.100	24.870	0.100
234.200	-2.171	0.100
234.300	22.803	0.100
234.400	20.742	0.100
234.500	12.757	0.100
234.600	19.994	0.100
234.700	8.882	0.100
234.800	16.476	0.100
234.900	20.482	0.100
235.000	8.635	0.100
235.100	3.314	0.100
235.200	14.336	0.100
235.300	10.354	0.100
235.400	17.462	0.100
235.500	7.564	0.100
235.600	21.333	0.100
235.700	7.325	0.100
235.800	10.669	0.100
235.900	18.063	0.100
236.000	2.210	0.100
236.100	17.717	0.100
236.200	3.329	0.100
236.300	0.266	0.100
236.400	16.066	0.100
236.500	25.169	0.100
236.600	18.254	0.100
236.700	10.043	0.100
236.800	8.570	0.100
236.900	3.522	0.100
237.000	11.998	0.100
237.100	6.410	0.100
237.200	3.707	0.100
237.300	10.355	0.100
237.400	19.432	0.100
237.500	8.489	0.100
237.600	12.206	0.100
237.700	14.889	0.100
237.800	26.315	0.100
237.900	22.349	0.100
238.000	8.142	0.100
238.100	31.346	0.100
238.200	-3.178	0.100
238.300	14.404	0.100
238.400	9.232	0.100
238.500	11.286	0.100
238.600	23.844	0.100
238.700	9.748	0.100
238.800	27.266	0.100
238.900	15.070	0.100
239.000	-10.116	0.100
239.100	15.446	0.100
239.200	5.924	0.100
239.300	7.732	0.100
239.400	13.639	0.100
239.500	23.267	0.100
239.600	18.814	0.100
239.700	14.895	0.100
239.800	11.587	0.100
239.900	24.608	0.100
240.000	0.709	0.100
240.100	-2.700	0.100
240.200	26.301	0.100
240.300	12.457	0.100
240.400	10.857	0.100
240.500	8.038	0.100
240.600	4.823	0.100
240.700	18.862	0.100
240.800	-3.029	0.100
240.900	-1.629	0.100
241.000	14.467	0.100
241.100	1.603	0.100
241.200	2.896	0.100
241.300	-3.736	0.100
241.400	3.654	0.100
241.500	9.060	0.100
241.600	7.003	0.100
241.700	2.476	0.100
241.800	8.537	0.100
241.900	-8.862	0.100
242.000	3.380	0.100
242.100	22.816	0.100
242.200	-1.608	0.100
242.300	10.539	0.100
242.400	7.234	0.100
242.500	3.245	0.100
242.600	26.056	0.100
242.700	15.247	0.100
242.800	6.508	0.100
242.900	8.193	0.100
243.000	14.679	0.100
243.100	4.328	0.100
243.200	15.819	0.100
243.300	3.253	0.100
243.400	10.069	0.100
243.500	-1.525	0.100
243.600	10.563	0.100
243.700	33.625	0.100
243.800	-7.352	0.100
243.900	13.518	0.100
244.000	6.671	0.100
244.100	10.288	0.100
244.200	1.680	0.100
244.300	23.455	0.100
244.400	-1.677	0.100
244.500	6.240	0.100
244.600	-4.334	0.100
244.700	5.860	0.100
244.800	8.003	0.100
244.900	18.563	0.100
245.000	16.010	0.100
245.100	28.101	0.100
245.200	8.026	0.100
245.300	24.089	0.100
245.400	6.450	0.100
245.500	1.462	0.100
245.600	12.226	0.100
245.700	-6.222	0.100
245.800	12.622	0.100
245.900	7.409	0.100
246.000	14.778	0.100
246.100	7.633	0.100
246.200	0.421	0.100
246.300	10.828	0.100
246.400	9.689	0.100
246.500	-8.740	0.100
246.600	-2.453	0.100
246.700	0.554	0.100
246.800	2.653	0.100
246.900	-2.257	0.100
247.000	1.709	0.100
247.100	7.415	0.100
247.200	25.610	0.100
247.300	6.404	0.100
247.400	16.286	0.100
247.500	2.750	0.100
247.600	9.619	0.100
247.700	-0.134	0.100
247.800	15.015	0.100
247.900	5.450	0.100
248.000	-1.525	0.100
248.100	9.340	0.100
248.200	-1.318	0.100
248.300	-2.087	0.100
248.400	16.633	0.100
248.500	2.955	0.100
248.600	3.564	0.100
248.700	10.841	0.100
248.800	-1.642	0.100
248.900	7.234	0.100
249.000	3.098	0.100
249.100	4.579	0.100
249.200	10.325	0.100
249.300	2.191	0.100
249.400	3.368	0.100
249.500	11.674	0.100
249.600	-14.217	0.100
249.700	9.779	0.100
249.800	0.838	0.100
249.900	-2.678	0.100
250.000	18.408	0.100
250.100	-6.012	0.100
250.200	12.223	0.100
250.300	-9.468	0.100
250.400	-4.924	0.100
250.500	-7.485	0.100
250.600	6.315	0.100
250.700	7.973	0.100
250.800	-7.157	0.100
250.900	5.448	0.100
251.000	0.262	0.100
251.100	-11.515	0.100
251.200	-12.399	0.100
251.300	19.271	0.100
251.400	-0.767	0.100
251.500	9.450	0.100
251.600	8.543	0.100
251.700	-14.705	0.100
251.800	-6.812	0.100
251.900	11.391	0.100
252.000	-16.800	0.100
252.100	3.476	0.100
252.200	1.647	0.100
252.300	9.609	0.100
252.400	0.431	0.100
252.500	-6.907	0.100
252.600	10.796	0.100
252.700	-1.604	0.100
252.800	5.076	0.100
252.900	-1.785	0.100
253.000	-0.444	0.100
253.100	1.713	0.100
253.200	23.914	0.100
253.300	-1.044	0.100
253.400	12.429	0.100
253.500	-1.773	0.100
253.600	-20.379	0.100
253.700	3.161	0.100
253.800	4.837	0.100
253.900	9.583	0.100
254.000	-4.636	0.100
254.100	7.820	0.100
254.200	-4.593	0.100
254.300	-4.930	0.100
254.400	-2.415	0.100
254.500	10.360	0.100
254.600	-0.081	0.100
254.700	-6.877	0.100
254.800	-1.173	0.100
254.900	-13.837	0.100
255.000	3.190	0.100
255.100	-3.891	0.100
255.200	-5.433	0.100
255.300	21.871	0.100
255.400	3.517	0.100
255.500	12.039	0.100
255.600	15.882	0.100
255.700	10.337	0.100
255.800	-24.379	0.100
255.900	7.849	0.100
256.000	2.996	0.100
256.100	-4.551	0.100
256.200	0.878	0.100
256.300	-7.140	0.100
256.400	-13.963	0.100
256.500	3.461	0.100
256.600	2.029	0.100
256.700	-6.865	0.100
256.800	-7.715	0.100
256.900	6.961	0.100
257.000	-16.252	0.100
257.100	7.172	0.100
257.200	-4.909	0.100
257.300	0.602	0.100
257.400	1.282	0.100
257.500	-1.935	0.100
257.600	-13.774	0.100
257.700	-6.364	0.100
257.800	-3.917	0.100
257.900	-0.471	0.100
258.000	-10.964	0.100
258.100	4.077	0.100
258.200	-11.688	0.100
258.300	-2.117	0.100
258.400	1.541	0.100
258.500	-3.690	0.100
258.600	-3.069	0.100
258.700	8.708	0.100
258.800	7.501	0.100
258.900	-4.974	0.100
259.000	0.659	0.100
259.100	-7.853	0.100
259.200	-0.631	0.100
259.300	-10.790	0.100
259.400	-2.022	0.100
259.500	-2.740	0.100
259.600	2.834	0.100
259.700	11.654	0.100
259.800	-18.440	0.100
259.900	-9.621	0.100
260.000	10.374	0.100
260.100	-1.174	0.100
260.200	-7.293	0.100
260.300	-6.252	0.100
260.400	-13.170	0.100
260.500	0.718	0.100
260.600	-4.523	0.100
260.700	-11.599	0.100
260.800	4.060	0.100
260.900	-3.609	0.100
261.000	-7.103	0.100
261.100	0.045	0.100
261.200	-8.163	0.100
261.300	-13.719	0.100
261.400	-0.306	0.100
261.500	-0.834	0.100
261.600	-9.306	0.100
261.700	1.521	0.100
261.800	-4.189	0.100
261.900	6.822	0.100
262.000	-4.903	0.100
262.100	14.464	0.100
262.200	8.430	0.100
262.300	2.808	0.100
262.400	-20.413	0.100
262.500	-6.020	0.100
262.600	-13.216	0.100
262.700	-7.265	0.100
262.800	3.153	0.100
262.900	-16.683	0.100
263.000	3.010	0.100
263.100	-3.321	0.100
263.200	-1.689	0.100
263.300	-17.832	0.100
263.400	13.935	0.100
263.500	2.558	0.100
263.600	8.974	0.100
263.700	-1.202	0.100
263.800	-2.015	0.100
263.900	8.883	0.100
264.000	-6.642	0.100
264.100	2.758	0.100
264.200	-5.202	0.100
264.300	-7.173	0.100
264.400	14.104	0.100
264.500	-9.382	0.100
264.600	-6.282	0.100
264.700	-8.649	0.100
264.800	-6.249	0.100
264.900	-6.010	0.100
265.000	-8.000	0.100
265.100	0.132	0.100
265.200	4.011	0.100
265.300	-15.652	0.100
265.400	-2.825	0.100
265.500	-14.676	0.100
265.600	-3.990	0.100
265.700	1.416	0.100
265.800	11.063	0.100
265.900	-3.397	0.100
266.000	2.905	0.100
266.100	-1.587	0.100
266.200	-10.697	0.100
266.300	-5.073	0.100
266.400	-6.248	0.100
266.500	-13.029	0.100
266.600	-8.022	0.100
266.700	-0.506	0.100
266.800	-0.087	0.100
266.900	-1.179	0.100
267.000	-20.382	0.100
267.100	5.965	0.100
267.200	3.183	0.100
267.300	2.780	0.100
267.400	1.311	0.100
267.500	-10.393	0.100
267.600	-0.625	0.100
267.700	10.038	0.100
267.800	-21.875	0.100
267.900	-2.554	0.100
268.000	10.549	0.100
268.100	11.052	0.100
268.200	-7.351	0.100
268.300	1.423	0.100
268.400	-9.628	0.100
268.500	0.168	0.100
268.600	2.517	0.100
268.700	-8.676	0.100
268.800	2.239	0.100
268.900	-8.591	0.100
269.000	-1.562	0.100
269.100	-6.356	0.100
269.200	-7.864	0.100
269.300	4.502	0.100
269.400	5.230	0.100
269.500	6.888	0.100
269.600	-13.573	0.100
269.700	-11.279	0.100
269.800	21.420	0.100
269.900	-9.218	0.100
270.000	1.115	0.100
270.100	-4.861	0.100
270.200	-3.175	0.100
270.300	-3.613	0.100
270.400	12.277	0.100
270.500	-1.744	0.100
270.600	-10.828	0.100
270.700	-1.157	0.100
270.800	-9.370	0.100
270.900	-6.733	0.100
271.000	10.570	0.100
271.100	0.346	0.100
271.200	-2.511	0.100
271.300	-7.128	0.100
271.400	-4.329	0.100
271.500	5.740	0.100
271.600	8.073	0.100
271.700	-1.662	0.100
271.800	-17.557	0.100
271.900	5.725	0.100
272.000	-3.745	0.100
272.100	-2.997	0.100
272.200	-3.643	0.100
272.300	-8.088	0.100
272.400	-4.948	0.100
272.500	-2.983	0.100
272.600	-3.607	0.100
272.700	1.153	0.100
272.800	1.810	0.100
272.900	-16.453	0.100
273.000	7.622	0.100
273.100	-4.097	0.100
273.200	9.011	0.100
273.300	3.489	0.100
273.400	7.121	0.100
273.500	0.096	0.100
273.600	-18.200	0.100
273.700	-4.569	0.100
273.800	1.502	0.100
273.900	-9.019	0.100
274.000	9.265	0.100
274.100	-5.025	0.100
274.200	-1.365	0.100
274.300	-9.285	0.100
274.400	-19.527	0.100
274.500	-0.706	0.100
274.600	-5.560	0.100
274.700	-4.787	0.100
274.800	-5.198	0.100
274.900	-0.339	0.100
275.000	-12.494	0.100
275.100	4.362	0.100
275.200	-12.018	0.100
275.300	-0.247	0.100
275.400	15.868	0.100
275.500	-3.407	0.100
275.600	1.467	0.100
275.700	-21.840	0.100
275.800	-10.011	0.100
275.900	12.849	0.100
276.000	19.128	0.100
276.100	-20.007	0.100
276.200	-6.441	0.100
276.300	4.729	0.100
276.400	3.018	0.100
276.500	-12.516	0.100
276.600	-10.374	0.100
276.700	-3.126	0.100
276.800	-5.769	0.100
276.900	-5.034	0.100
277.000	-7.161	0.100
277.100	1.928	0.100
277.200	-10.023	0.100
277.300	-9.415	0.100
277.400	8.836	0.100
277.500	-7.428	0.100
277.600	0.663	0.100
277.700	2.503	0.100
277.800	-19.689	0.100
277.900	-3.231	0.100
278.000	-12.780	0.100
278.100	-0.302	0.100
278.200	2.262	0.100
278.300	10.077	0.100
278.400	-0.644	0.100
278.500	-12.190	0.100
278.600	5.610	0.100
278.700	-7.342	0.100
278.800	9.073	0.100
278.900	-2.001	0.100
279.000	-4.648	0.100
279.100	-1.462	0.100
279.200	7.388	0.100
279.300	26.026	0.100
279.400	-17.504	0.100
279.500	-5.851	0.100
279.600	-1.390	0.100
279.700	-8.965	0.100
279.800	-17.966	0.100
279.900	-0.592	0.100
280.000	7.187	0.100
280.100	-14.236	0.100
280.200	-2.238	0.100
280.300	9.414	0.100
280.400	-10.478	0.100
280.500	19.604	0.100
280.600	-1.978	0.100
280.700	6.250	0.100
280.800	-0.697	0.100
280.900	-8.140	0.100
281.000	-4.249	0.100
281.100	0.715	0.100
281.200	8.848	0.100
281.300	1.078	0.100
281.400	-13.066	0.100
281.500	0.642	0.100
281.600	8.724	0.100
281.700	4.571	0.100
281.800	-9.261	0.100
281.900	8.275	0.100
282.000	-0.904	0.100
282.100	-17.137	0.100
282.200	-3.234	0.100
282.300	-16.039	0.100
282.400	1.188	0.100
282.500	15.669	0.100
282.600	-4.409	0.100
282.700	-3.723	0.100
282.800	-7.551	0.100
282.900	-10.481	0.100
283.000	6.423	0.100
283.100	6.564	0.100
283.200	-11.012	0.100
283.300	8.885	0.100
283.400	-9.336	0.100
283.500	-11.090	0.100
283.600	-5.476	0.100
283.700	5.254	0.100
283.800	-2.993	0.100
283.900	-8.459	0.100
284.000	-3.556	0.100
284.100	-3.500	0.100
284.200	12.087	0.100
284.300	7.394	0.100
284.400	6.109	0.100
284.500	-0.919	0.100
284.600	-5.073	0.100
284.700	5.410	0.100
284.800	-13.640	0.100
284.900	5.697	0.100
285.000	0.031	0.100
285.100	5.614	0.100
285.200	0.726	0.100
285.300	4.014	0.100
285.400	-0.599	0.100
285.500	-11.961	0.100
285.600	-2.607	0.100
285.700	3.429	0.100
285.800	7.922	0.100
285.900	-11.729	0.100
286.000	10.463	0.100
286.100	-3.519	0.100
286.200	-3.291	0.100
286.300	-4.733	0.100
286.400	14.009	0.100
286.500	6.802	0.100
286.600	3.953	0.100
286.700	6.941	0.100
286.800	-3.930	0.100
286.900	-10.843	0.100
287.000	2.786	0.100
287.100	-7.870	0.100
287.200	-6.458	0.100
287.300	14.104	0.100
287.400	-8.866	0.100
287.500	-16.356	0.100
287.600	5.117	0.100
287.700	10.857	0.100
287.800	10.468	0.100
287.900	-8.081	0.100
288.000	11.354	0.100
288.100	-11.467	0.100
288.200	-2.065	0.100
288.300	13.903	0.100
288.400	6.132	0.100
288.500	-3.620	0.100
288.600	3.025	0.100
288.700	-10.162	0.100
288.800	6.176	0.100
288.900	13.320	0.100
289.000	-11.493	0.100
289.100	-7.630	0.100
289.200	13.021	0.100
289.300	1.928	0.100
289.400	-3.587	0.100
289.500	8.774	0.100
289.600	-13.204	0.100
289.700	-10.557	0.100
289.800	0.693	0.100
289.900	0.699	0.100
290.000	20.133	0.100
290.100	12.924	0.100
290.200	-3.631	0.100
290.300	10.166	0.100
290.400	-5.632	0.100
290.500	5.423	0.100
290.600	-8.266	0.100
290.700	-1.906	0.100
290.800	4.070	0.100
290.900	6.389	0.100
291.000	-8.165	0.100
291.100	-6.596	0.100
291.200	-1.005	0.100
291.300	8.566	0.100
291.400	-1.324	0.100
291.500	-11.014	0.100
291.600	2.100	0.100
291.700	1.700	0.100
291.800	6.099	0.100
291.900	-5.031	0.100
292.000	7.599	0.100
292.100	12.553	0.100
292.200	7.871	0.100
292.300	-8.240	0.100
292.400	8.602	0.100
292.500	-9.454	0.100
292.600	-4.521	0.100
292.700	2.343	0.100
292.800	7.756	0.100
292.900	-12.025	0.100
293.000	5.578	0.100
293.100	15.964	0.100
293.200	5.457	0.100
293.300	-7.502	0.100
293.400	3.607	0.100
293.500	11.879	0.100
293.600	-15.227	0.100
293.700	0.609	0.100
293.800	-12.710	0.100
293.900	-3.265	0.100
294.000	-8.657	0.100
294.100	13.625	0.100
294.200	2.994	0.100
294.300	0.582	0.100
294.400	2.403	0.100
294.500	1.067	0.100
294.600	1.840	0.100
294.700	-1.423	0.100
294.800	4.686	0.100
294.900	15.369	0.100
295.000	-8.400	0.100
295.100	-12.073	0.100
295.200	-8.068	0.100
295.300	17.770	0.100
295.400	1.655	0.100
295.500	6.396	0.100
295.600	5.366	0.100
295.700	-6.602	0.100
295.800	-9.058	0.100
295.900	-5.267	0.100
296.000	21.728	0.100
296.100	0.205	0.100
296.200	4.826	0.100
296.300	-7.841	0.100
296.400	5.791	0.100
296.500	-0.841	0.100
296.600	7.989	0.100
296.700	0.646	0.100
296.800	2.566	0.100
296.900	-8.730	0.100
297.000	8.050	0.100
297.100	-4.356	0.100
297.200	-13.761	0.100
297.300	3.479	0.100
297.400	1.119	0.100
297.500	7.862	0.100
297.600	1.750	0.100
297.700	5.862	0.100
297.800	12.910	0.100
297.900	-6.719	0.100
298.000	5.347	0.100
298.100	6.965	0.100
298.200	0.925	0.100
298.300	12.050	0.100
298.400	7.018	0.100
298.500	2.295	0.100
298.600	-15.456	0.100
298.700	11.085	0.100
298.800	-4.634	0.100
298.900	-3.454	0.100
299.000	0.978	0.100
299.100	-1.158	0.100
299.200	-9.845	0.100
299.300	-23.883	0.100
299.400	5.587	0.100
299.500	-8.231	0.100
299.600	10.880	0.100
299.700	16.747	0.100
299.800	5.289	0.100
299.900	8.104	0.100
300.000	-7.953	0.100
300.100	-2.377	0.100
300.200	-1.467	0.100
300.300	-3.545	0.100
300.400	-5.730	0.100
300.500	11.063	0.100
300.600	-16.346	0.100
300.700	13.201	0.100
300.800	-12.923	0.100
300.900	11.166	0.100
301.000	6.572	0.100
301.100	3.384	0.100
301.200	7.358	0.100
301.300	14.319	0.100
301.400	-8.742	0.100
301.500	4.305	0.100
301.600	1.184	0.100
301.700	-0.321	0.100
301.800	5.341	0.100
301.900	-12.083	0.100
302.000	1.787	0.100
302.100	-7.312	0.100
302.200	-14.129	0.100
302.300	-9.966	0.100
302.400	18.094	0.100
302.500	-4.950	0.100
302.600	4.498	0.100
302.700	8.204	0.100
302.800	-3.089	0.100
302.900	3.042	0.100
303.000	-13.790	0.100
303.100	13.316	0.100
303.200	-12.256	0.100
303.300	3.947	0.100
303.400	7.906	0.100
303.500	1.990	0.100
303.600	-7.082	0.100
303.700	9.374	0.100
303.800	6.699	0.100
303.900	11.825	0.100
304.000	-5.613	0.100
304.100	9.013	0.100
304.200	-7.699	0.100
304.300	9.409	0.100
304.400	-5.416	0.100
304.500	3.835	0.100
304.600	12.659	0.100
304.700	0.428	0.100
304.800	-7.636	0.100
304.900	3.697	0.100
305.000	17.276	0.100
305.100	-10.253	0.100
305.200	8.955	0.100
305.300	17.095	0.100
305.400	-2.692	0.100
305.500	5.723	0.100
305.600	-3.452	0.100
305.700	-1.721	0.100
305.800	2.195	0.100
305.900	-1.228	0.100
306.000	-1.292	0.100
306.100	4.960	0.100
306.200	-5.381	0.100
306.300	-6.340	0.100
306.400	8.013	0.100
306.500	-7.985	0.100
306.600	5.002	0.100
306.700	3.058	0.100
306.800	-7.887	0.100
306.900	8.160	0.100
307.000	13.575	0.100
307.100	4.477	0.100
307.200	-8.134	0.100
307.300	-6.728	0.100
307.400	9.364	0.100
307.500	-7.818	0.100
307.600	6.476	0.100
307.700	-11.061	0.100
307.800	-14.534	0.100
307.900	16.759	0.100
308.000	-0.138	0.100
308.100	7.432	0.100
308.200	14.240	0.100
308.300	-7.102	0.100
308.400	-0.355	0.100
308.500	-0.999	0.100
308.600	5.021	0.100
308.700	6.705	0.100
308.800	-9.481	0.100
308.900	8.262	0.100
309.000	5.489	0.100
309.100	-6.742	0.100
309.200	-0.910	0.100
309.300	16.305	0.100
309.400	-2.841	0.100
309.500	6.645	0.100
309.600	-0.417	0.100
309.700	7.116	0.100
309.800	6.451	0.100
309.900	-10.003	0.100
310.000	26.543	0.100
310.100	-10.047	0.100
310.200	5.399	0.100
310.300	7.454	0.100
310.400	5.343	0.100
310.500	18.020	0.100
310.600	8.701	0.100
310.700	12.009	0.100
310.800	2.478	0.100
310.900	-11.271	0.100
311.000	10.874	0.100
311.100	0.157	0.100
311.200	1.542	0.100
311.300	9.540	0.100
311.400	-8.198	0.100
311.500	1.282	0.100
311.600	-4.117	0.100
311.700	3.261	0.100
311.800	-0.097	0.100
311.900	-1.902	0.100
312.000	-18.257	0.100
312.100	4.003	0.100
312.200	3.456	0.100
312.300	-10.066	0.100
312.400	-4.693	0.100
312.500	6.101	0.100
312.600	22.016	0.100
312.700	0.178	0.100
312.800	-10.715	0.100
312.900	1.263	0.100
313.000	4.770	0.100
313.100	-6.179	0.100
313.200	1.739	0.100
313.300	-8.444	0.100
313.400	-1.107	0.100
313.500	17.998	0.100
313.600	3.039	0.100
313.700	4.814	0.100
313.800	11.966	0.100
313.900	17.016	0.100
314.000	-2.765	0.100
314.100	6.802	0.100
314.200	4.130	0.100
314.300	31.110	0.100
314.400	-9.526	0.100
314.500	5.428	0.100
314.600	-12.536	0.100
314.700	6.219	0.100
314.800	11.872	0.100
314.900	-18.671	0.100
315.000	9.191	0.100
315.100	5.013	0.100
315.200	9.024	0.100
315.300	-1.944	0.100
315.400	3.885	0.100
315.500	-0.425	0.100
315.600	13.313	0.100
315.700	4.443	0.100
315.800	4.306	0.100
315.900	-6.140	0.100
316.000	14.712	0.100
316.100	-17.392	0.100
316.200	10.969	0.100
316.300	5.148	0.100
316.400	10.984	0.100
316.500	5.983	0.100
316.600	6.172	0.100
316.700	-6.046	0.100
316.800	-3.249	0.100
316.900	-1.122	0.100
317.000	-6.026	0.100
317.100	5.978	0.100
317.200	-5.568	0.100
317.300	6.383	0.100
317.400	2.440	0.100
317.500	1.403	0.100
317.600	-7.543	0.100
317.700	-13.119	0.100
317.800	4.960	0.100
317.900	1.836	0.100
318.000	-8.437	0.100
318.100	10.182	0.100
318.200	1.713	0.100
318.300	9.009	0.100
318.400	5.362	0.100
318.500	-3.048	0.100
318.600	8.614	0.100
318.700	9.994	0.100
318.800	-10.296	0.100
318.900	4.332	0.100
319.000	9.455	0.100
319.100	1.034	0.100
319.200	-9.518	0.100
319.300	9.913	0.100
319.400	-3.120	0.100
319.500	-12.916	0.100
319.600	16.798	0.100
319.700	-5.608	0.100
319.800	8.039	0.100
319.900	-8.748	0.100
320.000	4.661	0.100
320.100	5.971	0.100
320.200	1.816	0.100
320.300	4.840	0.100
320.400	13.399	0.100
320.500	1.135	0.100
320.600	9.558	0.100
320.700	-6.773	0.100
320.800	-6.089	0.100
320.900	5.981	0.100
321.000	-6.685	0.100
321.100	14.446	0.100
321.200	4.918	0.100
321.300	5.112	0.100
321.400	6.436	0.100
321.500	1.632	0.100
321.600	15.505	0.100
321.700	11.181	0.100
321.800	15.228	0.100
321.900	-3.951	0.100
322.000	14.272	0.100
322.100	-5.377	0.100
322.200	4.134	0.100
322.300	6.421	0.100
322.400	-13.412	0.100
322.500	16.486	0.100
322.600	11.134	0.100
322.700	8.995	0.100
322.800	6.860	0.100
322.900	-6.798	0.100
323.000	24.148	0.100
323.100	-8.034	0.100
323.200	16.781	0.100
323.300	16.319	0.100
323.400	3.352	0.100
323.500	-3.251	0.100
323.600	15.880	0.100
323.700	-8.352	0.100
323.800	17.724	0.100
323.900	-10.232	0.100
324.000	-7.848	0.100
324.100	9.244	0.100
324.200	4.222	0.100
324.300	-1.197	0.100
324.400	7.281	0.100
324.500	2.419	0.100
324.600	2.788	0.100
324.700	1.203	0.100
324.800	-4.992	0.100
324.900	0.595	0.100
325.000	0.516	0.100
325.100	14.357	0.100
325.200	5.381	0.100
325.300	-18.986	0.100
325.400	5.708	0.100
325.500	-4.112	0.100
325.600	22.458	0.100
325.700	14.866	0.100
325.800	-2.574	0.100
325.900	17.344	0.100
326.000	12.263	0.100
326.100	7.133	0.100
326.200	-3.824	0.100
326.300	1.357	0.100
326.400	10.931	0.100
326.500	11.248	0.100
326.600	10.953	0.100
326.700	-2.168	0.100
326.800	10.180	0.100
326.900	-2.751	0.100
327.000	2.613	0.100
327.100	-4.994	0.100
327.200	-15.447	0.100
327.300	14.923	0.100
327.400	15.474	0.100
327.500	-14.036	0.100
327.600	7.332	0.100
327.700	-6.747	0.100
327.800	-1.880	0.100
327.900	0.518	0.100
328.000	7.777	0.100
328.100	7.386	0.100
328.200	9.696	0.100
328.300	29.190	0.100
328.400	-8.480	0.100
328.500	-8.592	0.100
328.600	4.325	0.100
328.700	1.743	0.100
328.800	13.475	0.100
328.900	6.890	0.100
329.000	16.853	0.100
329.100	6.511	0.100
329.200	13.328	0.100
329.300	-4.305	0.100
329.400	17.493	0.100
329.500	-11.274	0.100
329.600	21.594	0.100
329.700	14.628	0.100
329.800	-0.150	0.100
329.900	9.089	0.100
330.000	14.417	0.100
330.100	15.725	0.100
330.200	9.757	0.100
330.300	2.666	0.100
330.400	7.690	0.100
330.500	5.169	0.100
330.600	-12.922	0.100
330.700	7.591	0.100
330.800	25.287	0.100
330.900	8.329	0.100
331.000	11.938	0.100
331.100	-1.239	0.100
331.200	10.256	0.100
331.300	7.435	0.100
331.400	12.347	0.100
331.500	20.386	0.100
331.600	4.859	0.100
331.700	20.465	0.100
331.800	12.323	0.100
331.900	0.549	0.100
332.000	8.495	0.100
332.100	9.620	0.100
332.200	10.057	0.100
332.300	18.334	0.100
332.400	8.541	0.100
332.500	10.351	0.100
332.600	19.281	0.100
332.700	9.530	0.100
332.800	14.045	0.100
332.900	32.319	0.100
333.000	15.316	0.100
333.100	4.759	0.100
333.200	12.409	0.100
333.300	31.366	0.100
333.400	-3.292	0.100
333.500	7.173	0.100
333.600	24.438	0.100
333.700	12.176	0.100
333.800	-0.317	0.100
333.900	7.679	0.100
334.000	9.590	0.100
334.100	30.362	0.100
334.200	22.875	0.100
334.300	8.989	0.100
334.400	14.956	0.100
334.500	7.440	0.100
334.600	14.039	0.100
334.700	14.970	0.100
334.800	6.422	0.100
334.900	13.737	0.100
335.000	18.356	0.100
335.100	28.526	0.100
335.200	9.519	0.100
335.300	9.439	0.100
335.400	10.797	0.100
335.500	20.116	0.100
335.600	18.363	0.100
335.700	14.854	0.100
335.800	19.382	0.100
335.900	6.745	0.100
336.000	4.163	0.100
336.100	11.742	0.100
336.200	24.706	0.100
336.300	7.724	0.100
336.400	31.779	0.100
336.500	16.790	0.100
336.600	11.136	0.100
336.700	10.745	0.100
336.800	-2.807	0.100
336.900	9.494	0.100
337.000	20.504	0.100
337.100	18.711	0.100
337.200	19.130	0.100
337.300	19.029	0.100
337.400	-1.045	0.100
337.500	10.466	0.100
337.600	0.679	0.100
337.700	30.533	0.100
337.800	-7.935	0.100
337.900	31.358	0.100
338.000	17.590	0.100
338.100	12.081	0.100
338.200	7.320	0.100
338.300	17.895	0.100
338.400	18.727	0.100
338.500	16.728	0.100
338.600	15.107	0.100
338.700	21.888	0.100
338.800	18.996	0.100
338.900	18.792	0.100
339.000	7.094	0.100
339.100	32.376	0.100
339.200	19.774	0.100
339.300	10.897	0.100
339.400	21.419	0.100
339.500	8.967	0.100
339.600	20.914	0.100
339.700	0.718	0.100
339.800	20.374	0.100
339.900	15.568	0.100
340.000	-7.594	0.100
340.100	12.874	0.100
340.200	21.531	0.100
340.300	16.114	0.100
340.400	28.726	0.100
340.500	10.087	0.100
340.600	25.282	0.100
340.700	14.139	0.100
340.800	21.603	0.100
340.900	5.079	0.100
341.000	8.530	0.100
341.100	5.690	0.100
341.200	21.353	0.100
341.300	-10.450	0.100
341.400	20.014	0.100
341.500	10.330	0.100
341.600	4.017	0.100
341.700	-0.243	0.100
341.800	7.458	0.100
341.900	24.656	0.100
342.000	11.476	0.100
342.100	2.291	0.100
342.200	10.496	0.100
342.300	18.039	0.100
342.400	12.073	0.100
342.500	23.731	0.100
342.600	14.068	0.100
342.700	4.122	0.100
342.800	11.877	0.100
342.900	33.202	0.100
343.000	27.578	0.100
343.100	29.108	0.100
343.200	9.565	0.100
343.300	8.112	0.100
343.400	19.647	0.100
343.500	26.253	0.100
343.600	6.761	0.100
343.700	-5.132	0.100
343.800	22.822	0.100
343.900	7.578	0.100
344.000	14.194	0.100
344.100	10.330	0.100
344.200	23.604	0.100
344.300	18.339	0.100
344.400	4.815	0.100
344.500	5.326	0.100
344.600	23.707	0.100
344.700	22.035	0.100
344.800	4.965	0.100
344.900	3.449	0.100
345.000	-0.515	0.100
345.100	8.240	0.100
345.200	22.642	0.100
345.300	17.662	0.100
345.400	34.550	0.100
345.500	16.037	0.100
345.600	10.618	0.100
345.700	15.270	0.100
345.800	15.577	0.100
345.900	1.264	0.100
346.000	23.171	0.100
346.100	15.531	0.100
346.200	24.450	0.100
346.300	26.343	0.100
346.400	0.295	0.100
346.500	12.565	0.100
346.600	15.651	0.100
346.700	18.517	0.100
346.800	20.408	0.100
346.900	0.863	0.100
347.000	3.270	0.100
347.100	4.364	0.100
347.200	22.539	0.100
347.300	13.140	0.100
347.400	15.087	0.100
347.500	27.927	0.100
347.600	23.150	0.100
347.700	23.377	0.100
347.800	-8.562	0.100
347.900	15.838	0.100
348.000	26.500	0.100
348.100	14.689	0.100
348.200	9.058	0.100
348.300	14.017	0.100
348.400	13.350	0.100
348.500	2.470	0.100
348.600	7.927	0.100
348.700	22.113	0.100
348.800	11.955	0.100
348.900	28.672	0.100
349.000	12.192	0.100
349.100	10.620	0.100
349.200	18.754	0.100
349.300	24.344	0.100
349.400	22.433	0.100
349.500	10.508	0.100
349.600	22.840	0.100
349.700	31.720	0.100
349.800	12.592	0.100
349.900	18.838	0.100
350.000	10.331	0.100
350.100	15.151	0.100
350.200	13.189	0.100
350.300	19.065	0.100
350.400	19.175	0.100
350.500	8.703	0.100
350.600	16.018	0.100
350.700	12.063	0.100
350.800	16.093	0.100
350.900	17.721	0.100
351.000	13.159	0.100
351.100	-5.977	0.100
351.200	12.559	0.100
351.300	12.549	0.100
351.400	16.814	0.100
351.500	-8.651	0.100
351.600	25.095	0.100
351.700	20.235	0.100
351.800	5.416	0.100
351.900	12.111	0.100
352.000	15.532	0.100
352.100	12.738	0.100
352.200	6.265	0.100
352.300	22.630	0.100
352.400	24.622	0.100
352.500	8.047	0.100
352.600	23.139	0.100
352.700	12.178	0.100
352.800	16.521	0.100
352.900	24.750	0.100
353.000	7.343	0.100
353.100	20.499	0.100
353.200	23.593	0.100
353.300	6.282	0.100
353.400	5.299	0.100
353.500	12.655	0.100
353.600	20.846	0.100
353.700	3.802	0.100
353.800	25.456	0.100
353.900	17.050	0.100
354.000	19.407	0.100
354.100	6.220	0.100
354.200	17.830	0.100
354.300	12.120	0.100
354.400	15.501	0.100
354.500	20.686	0.100
354.600	26.398	0.100
354.700	12.669	0.100
354.800	7.852	0.100
354.900	17.059	0.100
355.000	9.048	0.100
355.100	13.099	0.100
355.200	16.134	0.100
355.300	14.856	0.100
355.400	26.496	0.100
355.500	4.017	0.100
355.600	0.455	0.100
355.700	11.824	0.100
355.800	25.981	0.100
355.900	15.031	0.100
356.000	19.617	0.100
356.100	-4.181	0.100
356.200	5.200	0.100
356.300	30.881	0.100
356.400	-1.222	0.100
356.500	10.496	0.100
356.600	23.049	0.100
356.700	13.127	0.100
356.800	-0.462	0.100
356.900	27.867	0.100
357.000	8.212	0.100
357.100	5.253	0.100
357.200	9.012	0.100
357.300	12.600	0.100
357.400	21.454	0.100
357.500	20.312	0.100
357.600	15.337	0.100
357.700	10.208	0.100
357.800	10.020	0.100
357.900	19.000	0.100
358.000	5.115	0.100
358.100	18.372	0.100
358.200	12.532	0.100
358.300	21.180	0.100
358.400	2.782	0.100
358.500	5.522	0.100
358.600	6.628	0.100
358.700	6.234	0.100
358.800	4.914	0.100
358.900	11.842	0.100
359.000	19.597	0.100
359.100	6.943	0.100
359.200	26.251	0.100
359.300	32.953	0.100
359.400	19.751	0.100
359.500	16.995	0.100
359.600	5.823	0.100
359.700	23.049	0.100
359.800	10.829	0.100
359.900	8.669	0.100
360.000	-2.506	0.100
360.100	15.768	0.100
360.200	2.693	0.100
360.300	14.747	0.100
360.400	21.733	0.100
360.500	19.051	0.100
360.600	17.880	0.100
360.700	18.840	0.100
360.800	9.404	0.100
360.900	13.419	0.100
361.000	8.271	0.100
361.100	16.801	0.100
361.200	3.110	0.100
361.300	19.962	0.100
361.400	9.543	0.100
361.500	18.701	0.100
361.600	12.198	0.100
361.700	14.443	0.100
361.800	21.725	0.100
361.900	7.408	0.100
362.000	19.184	0.100
362.100	10.995	0.100
362.200	7.263	0.100
362.300	22.979	0.100
362.400	3.700	0.100
362.500	10.919	0.100
362.600	14.659	0.100
362.700	-1.710	0.100
362.800	17.057	0.100
362.900	10.891	0.100
363.000	23.456	0.100
363.100	16.197	0.100
363.200	14.695	0.100
363.300	1.158	0.100
363.400	20.000	0.100
363.500	20.941	0.100
363.600	10.858	0.100
363.700	21.947	0.100
363.800	8.874	0.100
363.900	-0.213	0.100
364.000	15.251	0.100
364.100	4.883	0.100
364.200	10.384	0.100
364.300	6.137	0.100
364.400	0.463	0.100
364.500	2.442	0.100
364.600	15.564	0.100
364.700	21.964	0.100
364.800	16.790	0.100
364.900	35.793	0.100
365.000	10.563	0.100
365.100	10.495	0.100
365.200	23.617	0.100
365.300	34.127	0.100
365.400	8.581	0.100
365.500	17.277	0.100
365.600	-1.393	0.100
365.700	16.372	0.100
365.800	6.645	0.100
365.900	3.968	0.100
366.000	32.376	0.100
366.100	0.201	0.100
366.200	13.163	0.100
366.300	8.218	0.100
366.400	2.104	0.100
366.500	-0.345	0.100
366.600	27.500	0.100
366.700	4.269	0.100
366.800	-1.024	0.100
366.900	26.314	0.100
367.000	12.239	0.100
367.100	12.065	0.100
367.200	5.573	0.100
367.300	11.394	0.100
367.400	25.727	0.100
367.500	-3.248	0.100
367.600	3.758	0.100
367.700	12.213	0.100
367.800	22.345	0.100
367.900	4.454	0.100
368.000	0.323	0.100
368.100	-0.028	0.100
368.200	24.970	0.100
368.300	26.729	0.100
368.400	5.910	0.100
368.500	16.048	0.100
368.600	-2.947	0.100
368.700	16.376	0.100
368.800	19.352	0.100
368.900	17.110	0.100
369.000	28.764	0.100
369.100	5.155	0.100
369.200	23.483	0.100
369.300	2.749	0.100
369.400	14.830	0.100
369.500	11.369	0.100
369.600	12.942	0.100
369.700	0.143	0.100
369.800	13.504	0.100
369.900	19.517	0.100
370.000	20.591	0.100
370.100	1.514	0.100
370.200	4.542	0.100
370.300	22.961	0.100
370.400	7.604	0.100
370.500	3.964	0.100
370.600	25.827	0.100
370.700	7.365	0.100
370.800	4.200	0.100
370.900	10.679	0.100
371.000	6.515	0.100
371.100	20.685	0.100
371.200	7.182	0.100
371.300	3.230	0.100
371.400	-3.050	0.100
371.500	2.007	0.100
371.600	21.378	0.100
371.700	26.764	0.100
371.800	3.007	0.100
371.900	15.379	0.100
372.000	3.450	0.100
372.100	20.160	0.100
372.200	10.515	0.100
372.300	6.727	0.100
372.400	16.515	0.100
372.500	24.038	0.100
372.600	-2.047	0.100
372.700	5.567	0.100
372.800	33.936	0.100
372.900	8.934	0.100
373.000	5.163	0.100
373.100	14.620	0.100
373.200	26.340	0.100
373.300	12.836	0.100
373.400	6.112	0.100
373.500	8.865	0.100
373.600	7.343	0.100
373.700	24.157	0.100
373.800	6.867	0.100
373.900	22.164	0.100
374.000	8.351	0.100
374.100	10.453	0.100
374.200	20.061	0.100
374.300	19.355	0.100
374.400	-3.450	0.100
374.500	15.700	0.100
374.600	15.708	0.100
374.700	-2.743	0.100
374.800	17.229	0.100
374.900	-0.405	0.100
375.000	22.674	0.100
375.100	18.343	0.100
375.200	28.737	0.100
375.300	12.729	0.100
375.400	12.320	0.100
375.500	12.143	0.100
375.600	11.409	0.100
375.700	9.324	0.100
375.800	22.465	0.100
375.900	21.245	0.100
376.000	23.726	0.100
376.100	15.933	0.100
376.200	16.208	0.100
376.300	-10.133	0.100
376.400	13.764	0.100
376.500	19.928	0.100
376.600	14.007	0.100
376.700	28.427	0.100
376.800	-8.813	0.100
376.900	10.727	0.100
377.000	9.290	0.100
377.100	9.021	0.100
377.200	11.164	0.100
377.300	2.377	0.100
377.400	8.427	0.100
377.500	18.873	0.100
377.600	16.529	0.100
377.700	4.978	0.100
377.800	14.111	0.100
377.900	15.674	0.100
378.000	-7.749	0.100
378.100	12.292	0.100
378.200	8.546	0.100
378.300	16.323	0.100
378.400	1.979	0.100
378.500	20.141	0.100
378.600	9.811	0.100
378.700	-0.621	0.100
378.800	-0.017	0.100
378.900	14.887	0.100
379.000	-0.394	0.100
379.100	8.488	0.100
379.200	8.630	0.100
379.300	13.520	0.100
379.400	13.367	0.100
379.500	-1.381	0.100
379.600	5.077	0.100
379.700	2.077	0.100
379.800	11.691	0.100
379.900	19.378	0.100
380.000	16.477	0.100
380.100	14.098	0.100
380.200	14.508	0.100
380.300	29.869	0.100
380.400	18.634	0.100
380.500	-2.921	0.100
380.600	34.464	0.100
380.700	18.857	0.100
380.800	8.729	0.100
380.900	24.576	0.100
381.000	5.227	0.100
381.100	11.976	0.100
381.200	2.210	0.100
381.300	12.218	0.100
381.400	12.489	0.100
381.500	6.923	0.100
381.600	23.727	0.100
381.700	0.121	0.100
381.800	13.045	0.100
381.900	1.925	0.100
382.000	22.310	0.100
382.100	23.173	0.100
382.200	6.821	0.100
382.300	20.865	0.100
382.400	3.876	0.100
382.500	16.589	0.100
382.600	-20.212	0.100
382.700	14.262	0.100
382.800	20.841	0.100
382.900	5.692	0.100
383.000	2.210	0.100
383.100	12.294	0.100
383.200	26.820	0.100
383.300	22.253	0.100
383.400	7.993	0.100
383.500	16.420	0.100
383.600	6.620	0.100
383.700	12.414	0.100
383.800	11.226	0.100
383.900	8.154	0.100
384.000	19.891	0.100
384.100	13.064	0.100
384.200	9.631	0.100
384.300	23.985	0.100
384.400	-5.937	0.100
384.500	22.428	0.100
384.600	11.446	0.100
384.700	13.604	0.100
384.800	2.879	0.100
384.900	9.435	0.100
385.000	26.227	0.100
385.100	7.373	0.100
385.200	11.607	0.100
385.300	4.420	0.100
385.400	16.832	0.100
385.500	0.764	0.100
385.600	19.604	0.100
385.700	6.079	0.100
385.800	15.148	0.100
385.900	-2.512	0.100
386.000	9.811	0.100
386.100	24.554	0.100
386.200	20.841	0.100
386.300	21.343	0.100
386.400	14.383	0.100
386.500	19.641	0.100
386.600	8.227	0.100
386.700	10.674	0.100
386.800	8.709	0.100
386.900	16.719	0.100
387.000	14.073	0.100
387.100	19.043	0.100
387.200	-0.162	0.100
387.300	7.415	0.100
387.400	6.801	0.100
387.500	9.065	0.100
387.600	11.401	0.100
387.700	10.355	0.100
387.800	13.281	0.100
387.900	20.763	0.100
388.000	17.176	0.100
388.100	1.304	0.100
388.200	22.121	0.100
388.300	20.566	0.100
388.400	4.029	0.100
388.500	17.252	0.100
388.600	7.029	0.100
388.700	17.268	0.100
388.800	5.677	0.100
388.900	23.798	0.100
389.000	17.292	0.100
389.100	1.476	0.100
389.200	7.289	0.100
389.300	5.479	0.100
389.400	27.572	0.100
389.500	9.435	0.100
389.600	14.140	0.100
389.700	-8.081	0.100
389.800	29.216	0.100
389.900	16.306	0.100
390.000	15.462	0.100
390.100	-8.439	0.100
390.200	10.345	0.100
390.300	1.618	0.100
390.400	8.373	0.100
390.500	7.684	0.100
390.600	5.566	0.100
390.700	21.560	0.100
390.800	13.507	0.100
390.900	18.506	0.100
391.000	1.636	0.100
391.100	8.713	0.100
391.200	7.307	0.100
391.300	22.164	0.100
391.400	11.942	0.100
391.500	15.236	0.100
391.600	4.477	0.100
391.700	19.900	0.100
391.800	-1.377	0.100
391.900	1.840	0.100
392.000	1.168	0.100
392.100	-15.672	0.100
392.200	10.404	0.100
392.300	2.705	0.100
392.400	12.612	0.100
392.500	6.605	0.100
392.600	10.876	0.100
392.700	-1.480	0.100
392.800	-0.245	0.100
392.900	7.906	0.100
393.000	12.659	0.100
393.100	1.739	0.100
393.200	6.873	0.100
393.300	11.012	0.100
393.400	0.288	0.100
393.500	6.973	0.100
393.600	18.896	0.100
393.700	30.755	0.100
393.800	7.204	0.100
393.900	19.416	0.100
394.000	-2.516	0.100
394.100	-1.389	0.100
394.200	-11.011	0.100
394.300	11.087	0.100
394.400	6.007	0.100
394.500	2.321	0.100
394.600	5.046	0.100
394.700	5.192	0.100
394.800	-4.037	0.100
394.900	-12.993	0.100
395.000	12.004	0.100
395.100	-1.082	0.100
395.200	-5.524	0.100
395.300	7.011	0.100
395.400	-0.504	0.100
395.500	12.121	0.100
395.600	4.957	0.100
395.700	1.325	0.100
395.800	-7.907	0.100
395.900	11.094	0.100
396.000	17.035	0.100
396.100	-9.008	0.100
396.200	12.992	0.100
396.300	0.739	0.100
396.400	-10.173	0.100
396.500	11.288	0.100
396.600	-6.760	0.100
396.700	-2.902	0.100
396.800	5.367	0.100
396.900	10.534	0.100
397.000	-7.265	0.100
397.100	-8.195	0.100
397.200	2.216	0.100
397.300	5.161	0.100
397.400	5.868	0.100
397.500	13.359	0.100
397.600	11.920	0.100
397.700	3.652	0.100
397.800	11.168	0.100
397.900	-3.225	0.100
398.000	3.116	0.100
398.100	-3.196	0.100
398.200	7.329	0.100
398.300	0.715	0.100
398.400	4.331	0.100
398.500	16.139	0.100
398.600	-2.345	0.100
398.700	11.232	0.100
398.800	5.650	0.100
398.900	7.207	0.100
399.000	10.660	0.100
399.100	12.091	0.100
399.200	5.176	0.100
399.300	-2.709	0.100
399.400	-3.543	0.100
399.500	14.652	0.100
399.600	2.046	0.100
399.700	8.301	0.100
399.800	17.231	0.100
399.900	-3.819	0.100
400.000	12.916	0.100
400.100	15.406	0.100
400.200	6.004	0.100
400.300	12.370	0.100
400.400	8.866	0.100
400.500	-13.214	0.100
400.600	-0.187	0.100
400.700	14.322	0.100
400.800	5.799	0.100
400.900	0.568	0.100
401.000	2.259	0.100
401.100	4.560	0.100
401.200	14.267	0.100
401.300	10.188	0.100
401.400	18.585	0.100
401.500	1.164	0.100
401.600	15.114	0.100
401.700	-11.450	0.100
401.800	15.341	0.100
401.900	-19.270	0.100
402.000	-2.384	0.100
402.100	8.282	0.100
402.200	2.655	0.100
402.300	-3.941	0.100
402.400	-11.349	0.100
402.500	-12.878	0.100
402.600	-6.530	0.100
402.700	-6.376	0.100
402.800	5.619	0.100
402.900	-1.180	0.100
403.000	3.519	0.100
403.100	-4.638	0.100
403.200	-8.213	0.100
403.300	-8.428	0.100
403.400	12.497	0.100
403.500	-2.681	0.100
403.600	13.079	0.100
403.700	0.451	0.100
403.800	-2.169	0.100
403.900	-5.681	0.100
404.000	-3.979	0.100
404.100	5.666	0.100
404.200	-2.310	0.100
404.300	-4.803	0.100
404.400	1.647	0.100
404.500	-14.395	0.100
404.600	-15.769	0.100
404.700	11.675	0.100
404.800	-10.104	0.100
404.900	-0.945	0.100
405.000	-6.020	0.100
405.100	6.641	0.100
405.200	7.295	0.100
405.300	-4.830	0.100
405.400	-20.138	0.100
405.500	-0.855	0.100
405.600	19.381	0.100
405.700	0.704	0.100
405.800	0.765	0.100
405.900	11.904	0.100
406.000	-4.325	0.100
406.100	4.992	0.100
406.200	-1.053	0.100
406.300	5.794	0.100
406.400	6.247	0.100
406.500	2.898	0.100
406.600	-6.430	0.100
406.700	-1.025	0.100
406.800	-10.382	0.100
406.900	1.085	0.100
407.000	-1.219	0.100
407.100	5.820	0.100
407.200	2.297	0.100
407.300	-4.446	0.100
407.400	9.851	0.100
407.500	2.323	0.100
407.600	1.933	0.100
407.700	-3.843	0.100
407.800	8.421	0.100
407.900	15.325	0.100
408.000	-0.898	0.100
408.100	12.921	0.100
408.200	2.820	0.100
408.300	5.978	0.100
408.400	-7.419	0.100
408.500	5.304	0.100
408.600	-14.850	0.100
408.700	1.415	0.100
408.800	6.996	0.100
408.900	10.214	0.100
409.000	-17.343	0.100
409.100	-1.123	0.100
409.200	1.060	0.100
409.300	5.560	0.100
409.400	10.591	0.100
409.500	-13.414	0.100
409.600	2.533	0.100
409.700	-8.053	0.100
409.800	-10.212	0.100
409.900	2.175	0.100
410.000	-20.684	0.100
410.100	11.662	0.100
410.200	1.985	0.100
410.300	-3.983	0.100
410.400	-11.070	0.100
410.500	10.802	0.100
410.600	16.616	0.100
410.700	8.995	0.100
410.800	-2.583	0.100
410.900	5.192	0.100
411.000	-3.998	0.100
411.100	-0.930	0.100
411.200	-4.209	0.100
411.300	-13.803	0.100
411.400	-1.046	0.100
411.500	-20.209	0.100
411.600	-2.534	0.100
411.700	1.688	0.100
411.800	-0.277	0.100
411.900	-6.630	0.100
412.000	-2.964	0.100
412.100	-9.147	0.100
412.200	-4.851	0.100
412.300	-4.957	0.100
412.400	-0.096	0.100
412.500	-13.148	0.100
412.600	-12.343	0.100
412.700	-7.071	0.100
412.800	14.881	0.100
412.900	4.178	0.100
413.000	-13.725	0.100
413.100	-5.541	0.100
413.200	-5.816	0.100
413.300	6.744	0.100
413.400	7.906	0.100
413.500	-5.723	0.100
413.600	0.287	0.100
413.700	11.420	0.100
413.800	-4.130	0.100
413.900	-10.777	0.100
414.000	-12.116	0.100
414.100	4.855	0.100
414.200	-11.127	0.100
414.300	-18.105	0.100
414.400	-0.287	0.100
414.500	0.649	0.100
414.600	-9.628	0.100
414.700	-12.522	0.100
414.800	1.328	0.100
414.900	-0.936	0.100
415.000	4.110	0.100
415.100	-0.094	0.100
415.200	0.563	0.100
415.300	-19.113	0.100
415.400	-2.655	0.100
415.500	-13.041	0.100
415.600	0.384	0.100
415.700	0.577	0.100
415.800	-12.499	0.100
415.900	6.399	0.100
416.000	-2.971	0.100
416.100	8.041	0.100
416.200	-4.963	0.100
416.300	-9.525	0.100
416.400	-13.121	0.100
416.500	1.172	0.100
416.600	-10.687	0.100
416.700	0.117	0.100
416.800	-13.091	0.100
416.900	-4.424	0.100
417.000	2.627	0.100
417.100	-12.079	0.100
417.200	12.257	0.100
417.300	1.870	0.100
417.400	1.218	0.100
417.500	6.125	0.100
417.600	-11.687	0.100
417.700	0.984	0.100
417.800	13.126	0.100
417.900	-2.581	0.100
418.000	8.562	0.100
418.100	1.649	0.100
418.200	1.442	0.100
418.300	3.552	0.100
418.400	0.235	0.100
418.500	17.130	0.100
418.600	-4.227	0.100
418.700	-0.437	0.100
418.800	-4.859	0.100
418.900	-1.939	0.100
419.000	-2.305	0.100
419.100	2.914	0.100
419.200	-6.561	0.100
419.300	4.493	0.100
419.400	3.425	0.100
419.500	-6.398	0.100
419.600	-16.741	0.100
419.700	5.948	0.100
419.800	-16.317	0.100
419.900	0.272	0.100
420.000	-7.399	0.100
420.100	-15.952	0.100
420.200	-14.272	0.100
420.300	6.909	0.100
420.400	-6.503	0.100
420.500	-5.331	0.100
420.600	0.496	0.100
420.700	-12.943	0.100
420.800	3.494	0.100
420.900	-14.124	0.100
421.000	10.159	0.100
421.100	-14.941	0.100
421.200	-6.977	0.100
421.300	6.612	0.100
421.400	-0.795	0.100
421.500	4.547	0.100
421.600	-27.779	0.100
421.700	7.046	0.100
421.800	-10.232	0.100
421.900	-9.439	0.100
422.000	-19.202	0.100
422.100	10.528	0.100
422.200	-6.660	0.100
422.300	12.638	0.100
422.400	-13.192	0.100
422.500	2.783	0.100
422.600	-19.745	0.100
422.700	9.164	0.100
422.800	-3.823	0.100
422.900	11.206	0.100
423.000	8.420	0.100
423.100	-8.394	0.100
423.200	-2.653	0.100
423.300	-3.559	0.100
423.400	-6.477	0.100
423.500	-1.006	0.100
423.600	-4.318	0.100
423.700	-2.566	0.100
423.800	-3.425	0.100
423.900	-1.611	0.100
424.000	0.636	0.101
424.100	-0.132	0.100
424.200	-2.238	0.100
424.300	-0.027	0.101
424.400	-13.134	0.101
424.500	-8.233	0.101
424.600	9.715	0.101
424.700	-26.930	0.101
424.800	12.686	0.101
424.900	-9.338	0.101
425.000	-2.396	0.101
425.100	-11.303	0.101
425.200	-0.892	0.101
425.300	-3.723	0.101
425.400	-5.950	0.101
425.500	6.053	0.101
425.600	-10.163	0.101
425.700	-7.988	0.101
425.800	-6.033	0.101
425.900	1.673	0.101
426.000	2.305	0.101
426.100	-13.043	0.101
426.200	-2.967	0.101
426.300	-4.475	0.101
426.400	-7.148	0.101
426.500	-5.804	0.101
426.600	1.877	0.101
426.700	10.280	0.101
426.800	-1.180	0.101
426.900	7.528	0.101
427.000	0.509	0.101
427.100	6.606	0.101
427.200	-7.804	0.101
427.300	-7.462	0.101
427.400	-4.797	0.101
427.500	5.141	0.101
427.600	-8.075	0.101
427.700	-22.092	0.101
427.800	-10.065	0.101
427.900	15.787	0.101
428.000	-5.495	0.101
428.100	6.176	0.101
428.200	-1.851	0.101
428.300	11.187	0.101
428.400	6.935	0.101
428.500	11.415	0.101
428.600	-4.578	0.101
428.700	10.864	0.101
428.800	6.684	0.101
428.900	-0.442	0.101
429.000	-8.470	0.101
429.100	-11.924	0.101
429.200	9.839	0.101
429.300	6.508	0.101
429.400	-3.243	0.101
429.500	-8.252	0.101
429.600	4.203	0.101
429.700	1.130	0.101
429.800	4.546	0.101
429.900	1.737	0.101
430.000	9.382	0.101
430.100	10.012	0.101
430.200	-4.376	0.101
430.300	-7.532	0.101
430.400	-13.311	0.101
430.500	0.729	0.101
430.600	3.722	0.101
430.700	8.445	0.101
430.800	-12.959	0.101
430.900	-5.153	0.101
431.000	-0.364	0.101
431.100	-14.521	0.101
431.200	5.117	0.101
431.300	-13.798	0.101
431.400	-6.741	0.101
431.500	-7.347	0.101
431.600	-14.162	0.101
431.700	12.083	0.101
431.800	8.784	0.101
431.900	19.205	0.101
432.000	6.941	0.101
432.100	-8.879	0.101
432.200	-2.716	0.101
432.300	13.165	0.101
432.400	1.497	0.101
432.500	1.519	0.101
432.600	3.082	0.101
432.700	1.615	0.101
432.800	-25.729	0.101
432.900	-11.050	0.101
433.000	-10.907	0.101
433.100	1.623	0.101
433.200	-2.811	0.101
433.300	-5.897	0.101
433.400	-8.200	0.101
433.500	5.917	0.101
433.600	-8.140	0.101
433.700	3.501	0.101
433.800	11.588	0.101
433.900	9.158	0.101
434.000	-10.571	0.101
434.100	2.795	0.101
434.200	3.099	0.101
434.300	-4.016	0.101
434.400	14.424	0.101
434.500	9.500	0.101
434.600	-10.875	0.101
434.700	20.798	0.101
434.800	-5.576	0.101
434.900	-4.876	0.101
435.000	-0.723	0.101
435.100	-8.646	0.101
435.200	1.262	0.101
435.300	2.240	0.101
435.400	5.926	0.101
435.500	-11.889	0.101
435.600	-1.351	0.101
435.700	6.610	0.101
435.800	13.787	0.101
435.900	9.763	0.101
436.000	6.206	0.101
436.100	7.599	0.101
436.200	-5.724	0.101
436.300	8.751	0.101
436.400	0.599	0.101
436.500	5.637	0.101
436.600	-6.850	0.101
436.700	-10.725	0.101
436.800	-5.098	0.101
436.900	2.879	0.101
437.000	-4.856	0.101
437.100	-7.393	0.101
437.200	8.959	0.101
437.300	4.331	0.101
437.400	20.443	0.101
437.500	-5.658	0.101
437.600	2.558	0.101
437.700	-14.053	0.101
437.800	11.276	0.101
437.900	-4.893	0.101
438.000	0.308	0.101
438.100	0.514	0.101
438.200	12.358	0.101
438.300	-6.547	0.101
438.400	7.010	0.101
438.500	6.330	0.101
438.600	9.005	0.101
438.700	0.034	0.101
438.800	3.748	0.101
438.900	-0.312	0.101
439.000	-4.712	0.101
439.100	3.403	0.101
439.200	-0.645	0.101
439.300	2.614	0.101
439.400	-11.270	0.101
439.500	11.800	0.101
439.600	-0.501	0.101
439.700	3.066	0.101
439.800	9.591	0.101
439.900	1.183	0.101
440.000	-3.981	0.101
440.100	-4.083	0.101
440.200	6.505	0.101
440.300	-5.658	0.101
440.400	2.063	0.101
440.500	-9.842	0.101
440.600	-0.730	0.101
440.700	1.090	0.101
440.800	6.173	0.101
440.900	17.087	0.101
441.000	1.449	0.101
441.100	-0.517	0.101
441.200	5.035	0.101
441.300	-14.133	0.101
441.400	-7.637	0.100
441.500	2.693	0.100
441.600	-5.350	0.100
441.700	-4.728	0.100
441.800	-3.061	0.100
441.900	-4.978	0.100
442.000	10.187	0.100
442.100	4.907	0.100
442.200	-4.514	0.100
442.300	-11.970	0.100
442.400	3.551	0.100
442.500	-1.016	0.100
442.600	13.643	0.100
442.700	-6.429	0.100
442.800	12.791	0.100
442.900	-9.643	0.100
443.000	15.254	0.100
443.100	-11.282	0.100
443.200	10.270	0.100
443.300	1.856	0.100
443.400	8.854	0.100
443.500	-6.977	0.100
443.600	-2.056	0.100
443.700	4.544	0.100
443.800	-6.035	0.100
443.900	7.860	0.100
444.000	-16.710	0.100
444.100	11.674	0.100
444.200	13.616	0.100
444.300	-3.424	0.100
444.400	0.832	0.100
444.500	11.044	0.100
444.600	2.434	0.100
444.700	8.025	0.100
444.800	-10.973	0.100
444.900	12.119	0.100
445.000	-3.093	0.100
445.100	11.175	0.100
445.200	5.126	0.100
445.300	-3.098	0.100
445.400	0.837	0.100
445.500	-16.503	0.100
445.600	-0.452	0.100
445.700	9.621	0.100
445.800	-7.057	0.100
445.900	-4.754	0.100
446.000	4.918	0.100
446.100	7.388	0.100
446.200	-1.098	0.100
446.300	5.638	0.100
446.400	14.864	0.100
446.500	5.017	0.100
446.600	-3.197	0.100
446.700	-4.204	0.100
446.800	28.062	0.100
446.900	2.683	0.100
447.000	-3.530	0.100
447.100	-11.090	0.100
447.200	10.832	0.100
447.300	-1.682	0.100
447.400	14.461	0.100
447.500	-12.779	0.100
447.600	4.705	0.100
447.700	-2.626	0.100
447.800	-18.359	0.100
447.900	7.329	0.100
448.000	2.192	0.100
448.100	-3.818	0.100
448.200	-8.683	0.100
448.300	3.800	0.100
448.400	7.861	0.100
448.500	4.498	0.100
448.600	5.286	0.100
448.700	1.066	0.100
448.800	6.238	0.100
448.900	15.058	0.100
449.000	0.287	0.100
449.100	-12.426	0.100
449.200	5.988	0.100
449.300	3.371	0.100
449.400	-10.725	0.100
449.500	13.533	0.100
449.600	0.785	0.100
449.700	-3.601	0.100
449.800	6.345	0.100
449.900	0.640	0.100
450.000	-10.118	0.100
450.100	1.928	0.100
450.200	-7.789	0.100
450.300	6.788	0.100
450.400	11.842	0.100
450.500	-8.040	0.100
450.600	9.745	0.100
450.700	3.392	0.100
450.800	-3.629	0.100
450.900	-2.121	0.100
451.000	-7.043	0.100
451.100	-4.248	0.100
451.200	-6.810	0.100
451.300	-1.874	0.100
451.400	-1.649	0.100
451.500	-14.955	0.100
451.600	11.163	0.100
451.700	12.796	0.100
451.800	5.754	0.100
451.900	5.664	0.100
452.000	-5.138	0.100
452.100	12.239	0.100
452.200	0.537	0.100
452.300	2.443	0.100
452.400	-1.437	0.100
452.500	9.935	0.100
452.600	-5.453	0.100
452.700	-5.226	0.100
452.800	-4.768	0.100
452.900	9.622	0.100
453.000	-2.582	0.100
453.100	9.814	0.100
453.200	7.468	0.100
453.300	13.711	0.100
453.400	5.442	0.100
453.500	-9.144	0.100
453.600	-2.492	0.100
453.700	-1.228	0.100
453.800	-7.456	0.100
453.900	7.848	0.100
454.000	15.354	0.100
454.100	12.718	0.100
454.200	19.580	0.100
454.300	12.609	0.100
454.400	-6.271	0.100
454.500	-5.721	0.100
454.600	2.227	0.100
454.700	1.111	0.100
454.800	25.147	0.100
454.900	11.788	0.100
455.000	-13.925	0.100
455.100	0.858	0.100
455.200	2.767	0.100
455.300	-5.855	0.100
455.400	-1.877	0.100
455.500	10.047	0.100
455.600	-1.796	0.100
455.700	3.930	0.100
455.800	11.393	0.100
455.900	-3.770	0.100
456.000	7.459	0.100
456.100	-9.459	0.100
456.200	10.203	0.100
456.300	-12.593	0.100
456.400	6.199	0.100
456.500	19.204	0.100
456.600	0.064	0.100
456.700	0.736	0.100
456.800	10.090	0.100
456.900	3.468	0.100
457.000	16.275	0.100
457.100	2.834	0.100
457.200	0.683	0.100
457.300	-0.807	0.100
457.400	4.606	0.100
457.500	9.671	0.100
457.600	2.376	0.100
457.700	7.012	0.100
457.800	-4.140	0.100
457.900	0.523	0.100
458.000	-3.178	0.100
458.100	0.295	0.100
458.200	-13.669	0.100
458.300	22.396	0.100
458.400	-6.786	0.100
458.500	1.284	0.100
458.600	-6.728	0.100
458.700	-3.758	0.100
458.800	1.000	0.100
458.900	15.396	0.100
459.000	1.866	0.100
459.100	-7.485	0.100
459.200	6.927	0.100
459.300	1.889	0.100
459.400	1.382	0.100
459.500	-3.669	0.100
459.600	24.414	0.100
459.700	12.197	0.100
459.800	6.074	0.100
459.900	10.706	0.100
460.000	16.571	0.100
460.100	5.950	0.100
460.200	8.336	0.100
460.300	2.048	0.100
460.400	8.811	0.100
460.500	-4.860	0.100
460.600	-12.759	0.100
460.700	1.741	0.100
460.800	-11.127	0.100
460.900	-3.024	0.100
461.000	23.416	0.100
461.100	7.613	0.100
461.200	5.728	0.100
461.300	13.237	0.100
461.400	-9.289	0.100
461.500	-4.837	0.100
461.600	-9.248	0.100
461.700	5.120	0.100
461.800	6.697	0.100
461.900	-7.567	0.100
462.000	-6.910	0.100
462.100	3.281	0.100
462.200	2.965	0.100
462.300	2.138	0.100
462.400	13.657	0.100
462.500	-8.066	0.100
462.600	3.699	0.100
462.700	-10.571	0.100
462.800	0.814	0.100
462.900	-11.720	0.100
463.000	11.936	0.100
463.100	-1.054	0.100
463.200	-12.909	0.100
463.300	3.453	0.100
463.400	9.726	0.100
463.500	-3.032	0.100
463.600	22.290	0.100
463.700	4.411	0.100
463.800	-9.351	0.100
463.900	-5.137	0.100
464.000	7.183	0.100
464.100	1.837	0.100
464.200	-9.670	0.100
464.300	6.846	0.100
464.400	0.685	0.100
464.500	0.192	0.100
464.600	-2.436	0.100
464.700	0.327	0.100
464.800	-1.216	0.100
464.900	-10.098	0.100
465.000	4.630	0.100
465.100	11.219	0.100
465.200	10.521	0.100
465.300	12.891	0.100
465.400	-4.069	0.100
465.500	17.962	0.100
465.600	5.091	0.100
465.700	-5.083	0.100
465.800	-11.738	0.100
465.900	-3.851	0.100
466.000	11.747	0.100
466.100	-9.741	0.100
466.200	-11.442	0.100
466.300	-8.395	0.100
466.400	-8.325	0.100
466.500	-0.448	0.100
466.600	13.533	0.100
466.700	4.700	0.100
466.800	-3.268	0.100
466.900	3.720	0.100
467.000	6.239	0.100
467.100	-0.094	0.100
467.200	14.683	0.100
467.300	-15.722	0.100
467.400	11.250	0.100
467.500	-10.688	0.100
467.600	4.895	0.100
467.700	-4.686	0.100
467.800	-3.921	0.100
467.900	14.348	0.100
468.000	-6.281	0.100
468.100	3.274	0.100
468.200	6.175	0.100
468.300	2.355	0.100
468.400	-23.151	0.100
468.500	11.367	0.100
468.600	2.452	0.100
468.700	9.389	0.100
468.800	-14.615	0.100
468.900	-1.654	0.100
469.000	2.746	0.100
469.100	-5.314	0.100
469.200	-3.711	0.100
469.300	-3.890	0.100
469.400	2.463	0.100
469.500	12.104	0.100
469.600	10.498	0.100
469.700	-0.943	0.100
469.800	-9.481	0.100
469.900	1.108	0.100
470.000	4.903	0.100
470.100	4.352	0.100
470.200	-11.393	0.100
470.300	-1.951	0.100
470.400	6.257	0.100
470.500	4.967	0.100
470.600	-4.418	0.100
470.700	13.740	0.100
470.800	2.913	0.100
470.900	18.418	0.100
471.000	-1.375	0.100
471.100	-10.357	0.100
471.200	12.232	0.100
471.300	1.265	0.100
471.400	-6.602	0.100
471.500	0.959	0.100
471.600	-3.414	0.100
471.700	17.815	0.100
471.800	-3.605	0.100
471.900	5.803	0.100
472.000	-2.480	0.100
472.100	-0.085	0.100
472.200	9.353	0.100
472.300	-1.436	0.100
472.400	-4.676	0.100
472.500	1.568	0.100
472.600	2.853	0.100
472.700	4.502	0.100
472.800	0.639	0.100
472.900	-8.109	0.100
473.000	7.453	0.100
473.100	-2.764	0.100
473.200	9.718	0.100
473.300	3.812	0.100
473.400	0.205	0.100
473.500	8.595	0.100
473.600	0.266	0.100
473.700	3.225	0.100
473.800	0.940	0.100
473.900	-0.906	0.100
474.000	0.414	0.100
474.100	11.252	0.100
474.200	3.994	0.100
474.300	18.964	0.100
474.400	14.670	0.100
474.500	-5.125	0.100
474.600	-5.403	0.100
474.700	1.973	0.100
474.800	-6.263	0.100
474.900	0.668	0.100
475.000	19.406	0.100
475.100	5.649	0.100
475.200	-0.159	0.100
475.300	20.759	0.100
475.400	1.136	0.100
475.500	0.267	0.100
475.600	-10.539	0.100
475.700	5.559	0.100
475.800	10.734	0.100
475.900	9.560	0.100
476.000	2.391	0.100
476.100	3.931	0.100
476.200	-0.396	0.100
476.300	-9.324	0.100
476.400	10.837	0.100
476.500	17.798	0.100
476.600	-7.706	0.100
476.700	-5.749	0.100
476.800	10.053	0.100
476.900	13.099	0.100
477.000	-0.078	0.100
477.100	3.654	0.100
477.200	5.097	0.100
477.300	-1.514	0.100
477.400	4.754	0.100
477.500	6.951	0.100
477.600	-5.454	0.100
477.700	-3.802	0.100
477.800	5.611	0.100
477.900	-6.712	0.100
478.000	-11.064	0.100
478.100	1.912	0.100
478.200	-12.238	0.100
478.300	10.747	0.100
478.400	-10.192	0.100
478.500	-3.380	0.100
478.600	7.946	0.100
478.700	3.951	0.100
478.800	16.028	0.100
478.900	-6.819	0.100
479.000	24.259	0.100
479.100	25.208	0.100
479.200	2.627	0.100
479.300	12.402	0.100
479.400	0.590	0.100
479.500	13.346	0.100
479.600	9.154	0.100
479.700	14.384	0.100
479.800	-2.054	0.100
479.900	-11.566	0.100
480.000	-6.186	0.100
480.100	15.152	0.100
480.200	17.255	0.100
480.300	17.957	0.100
480.400	11.974	0.100
480.500	8.004	0.100
480.600	20.612	0.100
480.700	2.796	0.100
480.800	5.477	0.100
480.900	10.801	0.100
481.000	4.928	0.100
481.100	17.694	0.100
481.200	8.475	0.100
481.300	13.780	0.100
481.400	-6.261	0.100
481.500	11.361	0.100
481.600	18.297	0.100
481.700	-3.856	0.100
481.800	12.600	0.100
481.900	13.218	0.100
482.000	1.761	0.100
482.100	26.798	0.100
482.200	19.679	0.100
482.300	13.910	0.100
482.400	13.779	0.100
482.500	21.884	0.100
482.600	5.469	0.100
482.700	16.677	0.100
482.800	10.094	0.100
482.900	-13.828	0.100
483.000	21.168	0.100
483.100	-8.226	0.100
483.200	14.364	0.100
483.300	3.816	0.100
483.400	17.417	0.100
483.500	7.955	0.100
483.600	14.267	0.100
483.700	21.727	0.100
483.800	19.324	0.100
483.900	9.211	0.100
484.000	11.679	0.100
484.100	11.642	0.100
484.200	9.324	0.100
484.300	7.721	0.100
484.400	6.999	0.100
484.500	13.254	0.100
484.600	11.821	0.100
484.700	-12.060	0.100
484.800	10.458	0.100
484.900	14.270	0.100
485.000	18.176	0.100
485.100	17.121	0.100
485.200	4.881	0.100
485.300	11.493	0.100
485.400	6.965	0.100
485.500	25.173	0.100
485.600	20.351	0.100
485.700	8.438	0.100
485.800	19.917	0.100
485.900	12.023	0.100
486.000	14.908	0.100
486.100	31.368	0.100
486.200	17.582	0.100
486.300	13.176	0.100
486.400	11.410	0.100
486.500	19.260	0.100
486.600	-14.325	0.100
486.700	14.772	0.100
486.800	2.150	0.100
486.900	3.291	0.100
487.000	1.202	0.100
487.100	20.088	0.100
487.200	9.013	0.100
487.300	6.627	0.100
487.400	17.130	0.100
487.500	15.990	0.100
487.600	12.522	0.100
487.700	5.560	0.100
487.800	-1.406	0.100
487.900	21.808	0.100
488.000	0.680	0.100
488.100	10.905	0.100
488.200	6.882	0.100
488.300	17.618	0.100
488.400	12.397	0.100
488.500	29.463	0.100
488.600	21.883	0.100
488.700	6.306	0.100
488.800	6.372	0.100
488.900	31.197	0.100
489.000	14.076	0.100
489.100	-0.608	0.100
489.200	16.742	0.100
489.300	9.125	0.100
489.400	16.330	0.100
489.500	18.707	0.100
489.600	11.014	0.100
489.700	-8.587	0.100
489.800	21.978	0.100
489.900	11.946	0.100
490.000	12.756	0.100
490.100	22.949	0.100
490.200	21.834	0.100
490.300	21.825	0.100
490.400	4.758	0.100
490.500	6.498	0.100
490.600	-10.205	0.100
490.700	12.473	0.100
490.800	10.550	0.100
490.900	17.696	0.100
491.000	16.151	0.100
491.100	-5.567	0.100
491.200	20.291	0.100
491.300	10.479	0.100
491.400	30.971	0.100
491.500	-3.413	0.100
491.600	11.307	0.100
491.700	4.689	0.100
491.800	15.074	0.100
491.900	33.944	0.100
492.000	25.017	0.100
492.100	7.605	0.100
492.200	5.634	0.100
492.300	25.746	0.100
492.400	12.239	0.100
492.500	22.432	0.100
492.600	28.570	0.100
492.700	-2.752	0.100
492.800	11.070	0.100
492.900	11.798	0.100
493.000	19.912	0.100
493.100	16.904	0.100
493.200	17.867	0.100
493.300	4.667	0.100
493.400	19.211	0.100
493.500	4.149	0.100
493.600	6.781	0.100
493.700	19.926	0.100
493.800	13.873	0.100
493.900	5.009	0.100
494.000	28.545	0.100
494.100	17.484	0.100
494.200	-3.507	0.100
494.300	16.774	0.100
494.400	25.420	0.100
494.500	7.034	0.100
494.600	5.535	0.100
494.700	9.269	0.100
494.800	25.096	0.100
494.900	28.772	0.100
495.000	10.904	0.100
495.100	5.967	0.100
495.200	23.281	0.100
495.300	15.530	0.100
495.400	7.004	0.100
495.500	13.210	0.100
495.600	1.720	0.100
495.700	19.932	0.100
495.800	15.152	0.100
495.900	16.434	0.100
496.000	12.855	0.100
496.100	0.264	0.100
496.200	34.015	0.100
496.300	14.677	0.100
496.400	-2.393	0.100
496.500	3.353	0.100
496.600	6.345	0.100
496.700	2.928	0.100
496.800	18.500	0.100
496.900	3.169	0.100
497.000	7.485	0.100
497.100	14.608	0.100
497.200	8.229	0.100
497.300	10.147	0.100
497.400	29.665	0.100
497.500	4.027	0.100
497.600	16.825	0.100
497.700	15.782	0.100
497.800	21.318	0.100
497.900	12.047	0.100
498.000	16.822	0.100
498.100	11.130	0.100
498.200	28.664	0.100
498.300	9.481	0.100
498.400	8.838	0.100
498.500	18.097	0.100
498.600	9.846	0.100
498.700	19.282	0.100
498.800	10.543	0.100
498.900	6.009	0.100
499.000	16.862	0.100
499.100	32.266	0.100
499.200	3.540	0.100
499.300	21.590	0.100
499.400	15.867	0.100
499.500	11.717	0.100
499.600	27.440	0.100
499.700	20.452	0.100
499.800	9.796	0.100
499.900	9.994	0.100
500.000	22.147	0.100
500.100	26.738	0.100
500.200	18.052	0.100
500.300	20.683	0.100
500.400	13.197	0.100
500.500	10.335	0.100
500.600	19.739	0.100
500.700	22.597	0.100
500.800	8.653	0.100
500.900	3.092	0.100
501.000	10.062	0.100
501.100	7.317	0.100
501.200	-13.316	0.100
501.300	-1.293	0.100
501.400	15.473	0.100
501.500	11.999	0.100
501.600	1.875	0.100
501.700	8.954	0.100
501.800	19.002	0.100
501.900	17.895	0.100
502.000	17.893	0.100
502.100	4.412	0.100
502.200	18.733	0.100
502.300	9.835	0.100
502.400	24.853	0.100
502.500	9.107	0.100
502.600	17.195	0.100
502.700	14.335	0.100
502.800	7.425	0.100
502.900	2.493	0.100
503.000	11.119	0.100
503.100	10.743	0.100
503.200	44.293	0.100
503.300	31.638	0.100
503.400	3.301	0.100
503.500	12.077	0.100
503.600	7.952	0.100
503.700	16.085	0.100
503.800	6.970	0.100
503.900	27.552	0.100
504.000	25.308	0.100
504.100	10.922	0.100
504.200	-1.321	0.100
504.300	11.985	0.100
504.400	26.559	0.100
504.500	9.743	0.100
504.600	21.020	0.100
504.700	18.208	0.100
504.800	1.088	0.100
504.900	13.863	0.100
505.000	19.406	0.100
505.100	-2.463	0.100
505.200	18.256	0.100
505.300	-2.717	0.100
505.400	29.668	0.100
505.500	17.450	0.100
505.600	34.903	0.100
505.700	9.593	0.100
505.800	1.534	0.100
505.900	-0.149	0.100
506.000	10.276	0.100
506.100	26.035	0.100
506.200	15.588	0.100
506.300	13.394	0.100
506.400	15.769	0.100
506.500	25.319	0.100
506.600	10.610	0.100
506.700	14.337	0.100
506.800	18.170	0.100
506.900	7.407	0.100
507.000	19.474	0.100
507.100	14.528	0.100
507.200	21.671	0.100
507.300	14.484	0.100
507.400	20.630	0.100
507.500	19.303	0.100
507.600	18.539	0.100
507.700	4.143	0.100
507.800	-2.254	0.100
507.900	12.120	0.100
508.000	11.758	0.100
508.100	-1.058	0.100
508.200	14.938	0.100
508.300	1.849	0.100
508.400	15.937	0.100
508.500	7.801	0.100
508.600	16.415	0.100
508.700	2.242	0.100
508.800	33.428	0.100
508.900	3.330	0.100
509.000	11.453	0.100
509.100	33.253	0.100
509.200	16.870	0.100
509.300	13.773	0.100
509.400	3.639	0.100
509.500	19.099	0.100
509.600	6.869	0.100
509.700	12.017	0.100
509.800	22.018	0.100
509.900	22.223	0.100
510.000	14.216	0.100
510.100	19.194	0.100
510.200	12.017	0.100
510.300	15.942	0.100
510.400	-0.911	0.100
510.500	1.685	0.100
510.600	11.231	0.100
510.700	3.386	0.100
510.800	9.371	0.100
510.900	18.553	0.100
511.000	23.174	0.100
511.100	-9.337	0.100
511.200	16.352	0.100
511.300	0.949	0.100
511.400	18.010	0.100
511.500	16.708	0.100
511.600	5.101	0.100
511.700	-1.988	0.100
511.800	12.930	0.100
511.900	1.714	0.100
512.000	27.586	0.100
512.100	0.562	0.100
512.200	7.486	0.100
512.300	17.276	0.100
512.400	11.909	0.100
512.500	28.283	0.100
512.600	8.945	0.100
512.700	12.831	0.100
512.800	9.477	0.100
512.900	9.714	0.100
513.000	13.990	0.100
513.100	-0.935	0.100
513.200	10.136	0.100
513.300	9.167	0.100
513.400	14.963	0.100
513.500	10.463	0.100
513.600	19.811	0.100
513.700	3.901	0.100
513.800	15.045	0.100
513.900	14.291	0.100
514.000	1.584	0.100
514.100	10.612	0.100
514.200	22.816	0.100
514.300	9.014	0.100
514.400	10.538	0.100
514.500	29.473	0.100
514.600	13.536	0.100
514.700	-4.106	0.100
514.800	19.885	0.100
514.900	17.235	0.100
515.000	7.263	0.100
515.100	26.402	0.100
515.200	11.929	0.100
515.300	23.268	0.100
515.400	7.214	0.100
515.500	15.912	0.100
515.600	13.234	0.100
515.700	8.001	0.100
515.800	17.098	0.100
515.900	9.602	0.100
516.000	25.980	0.100
516.100	11.174	0.100
516.200	26.902	0.100
516.300	7.732	0.100
516.400	9.971	0.100
516.500	25.511	0.100
516.600	19.053	0.100
516.700	8.316	0.100
516.800	5.709	0.100
516.900	22.489	0.100
517.000	19.842	0.100
517.100	15.951	0.100
517.200	16.930	0.100
517.300	7.956	0.100
517.400	28.776	0.100
517.500	0.408	0.100
517.600	13.587	0.100
517.700	20.029	0.100
517.800	25.607	0.100
517.900	18.269	0.100
518.000	31.090	0.100
518.100	7.821	0.100
518.200	4.084	0.100
518.300	9.420	0.100
518.400	-7.367	0.100
518.500	-8.383	0.100
518.600	0.190	0.100
518.700	9.020	0.100
518.800	23.093	0.100
518.900	4.842	0.100
519.000	1.294	0.100
519.100	19.673	0.100
519.200	17.300	0.100
519.300	18.495	0.100
519.400	14.414	0.100
519.500	15.521	0.100
519.600	-3.435	0.100
519.700	22.062	0.100
519.800	11.052	0.100
519.900	12.948	0.100
520.000	20.681	0.100
520.100	21.663	0.100
520.200	8.846	0.100
520.300	4.491	0.100
520.400	24.031	0.100
520.500	6.125	0.100
520.600	2.629	0.100
520.700	8.363	0.100
520.800	6.890	0.100
520.900	-0.490	0.100
521.000	8.338	0.100
521.100	1.045	0.100
521.200	17.296	0.100
521.300	9.035	0.100
521.400	7.749	0.100
521.500	10.173	0.100
521.600	5.617	0.100
521.700	3.593	0.100
521.800	22.690	0.100
521.900	10.114	0.100
522.000	27.213	0.100
522.100	14.172	0.100
522.200	24.948	0.100
522.300	19.725	0.100
522.400	5.891	0.100
522.500	5.415	0.100
522.600	3.408	0.100
522.700	20.733	0.100
522.800	9.582	0.100
522.900	17.844	0.100
523.000	21.185	0.100
523.100	4.689	0.100
523.200	13.337	0.100
523.300	-0.988	0.100
523.400	11.391	0.100
523.500	16.954	0.100
523.600	23.017	0.100
523.700	1.683	0.100
523.800	24.363	0.100
523.900	3.695	0.100
524.000	10.667	0.100
524.100	2.506	0.100
524.200	3.291	0.100
524.300	17.781	0.100
524.400	-1.450	0.100
524.500	13.383	0.100
524.600	7.781	0.100
524.700	-0.285	0.100
524.800	39.042	0.100
524.900	1.011	0.100
525.000	-8.629	0.100
525.100	3.029	0.100
525.200	7.732	0.100
525.300	13.140	0.100
525.400	9.853	0.100
525.500	11.547	0.100
525.600	21.719	0.100
525.700	13.062	0.100
525.800	10.249	0.100
525.900	6.902	0.100
526.000	1.863	0.100
526.100	12.956	0.100
526.200	9.385	0.100
526.300	-7.406	0.100
526.400	23.370	0.100
526.500	15.357	0.100
526.600	6.340	0.100
526.700	11.994	0.100
526.800	9.065	0.100
526.900	5.520	0.100
527.000	9.745	0.100
527.100	7.365	0.100
527.200	14.244	0.100
527.300	18.889	0.100
527.400	19.299	0.100
527.500	11.201	0.100
527.600	22.123	0.100
527.700	15.833	0.100
527.800	4.848	0.100
527.900	4.197	0.100
528.000	29.969	0.100
528.100	6.229	0.100
528.200	14.844	0.100
528.300	4.185	0.100
528.400	8.198	0.100
528.500	2.523	0.100
528.600	2.456	0.100
528.700	17.834	0.100
528.800	23.080	0.100
528.900	20.587	0.100
529.000	16.156	0.100
529.100	14.177	0.100
529.200	16.122	0.100
529.300	18.153	0.100
529.400	6.369	0.100
529.500	28.487	0.100
529.600	5.693	0.100
529.700	23.481	0.100
529.800	-15.079	0.100
529.900	7.116	0.100
530.000	22.112	0.100
530.100	-1.509	0.100
530.200	14.263	0.100
530.300	25.650	0.100
530.400	15.438	0.100
530.500	-14.260	0.100
530.600	13.452	0.100
530.700	22.332	0.100
530.800	24.782	0.100
530.900	6.297	0.100
531.000	29.836	0.100
531.100	15.409	0.100
531.200	11.601	0.100
531.300	5.478	0.100
531.400	11.267	0.100
531.500	6.310	0.100
531.600	16.160	0.100
531.700	-0.950	0.100
531.800	5.505	0.100
531.900	13.666	0.100
532.000	12.627	0.100
532.100	6.861	0.100
532.200	4.258	0.100
532.300	24.184	0.100
532.400	13.729	0.100
532.500	17.844	0.100
532.600	8.981	0.100
532.700	16.822	0.100
532.800	11.741	0.100
532.900	26.253	0.100
533.000	10.826	0.100
533.100	15.923	0.100
533.200	1.234	0.100
533.300	0.652	0.100
533.400	16.126	0.100
533.500	17.854	0.100
533.600	20.994	0.100
533.700	-4.684	0.100
533.800	-3.330	0.100
533.900	21.257	0.100
534.000	11.613	0.100
534.100	8.423	0.100
534.200	8.914	0.100
534.300	24.630	0.100
534.400	1.308	0.100
534.500	6.935	0.100
534.600	21.893	0.100
534.700	5.866	0.100
534.800	-11.282	0.100
534.900	23.803	0.100
535.000	11.275	0.100
535.100	-3.149	0.100
535.200	16.937	0.100
535.300	17.487	0.100
535.400	10.125	0.100
535.500	7.343	0.100
535.600	2.222	0.100
535.700	3.624	0.100
535.800	10.951	0.100
535.900	19.717	0.100
536.000	12.270	0.100
536.100	9.945	0.100
536.200	9.556	0.100
536.300	20.979	0.100
536.400	-4.835	0.100
536.500	20.200	0.100
536.600	-3.548	0.100
536.700	7.247	0.100
536.800	13.101	0.100
536.900	-1.195	0.100
537.000	27.080	0.100
537.100	-3.898	0.100
537.200	7.968	0.100
537.300	18.707	0.100
537.400	17.494	0.100
537.500	14.917	0.100
537.600	4.677	0.100
537.700	0.323	0.100
537.800	12.513	0.100
537.900	22.191	0.100
538.000	7.086	0.100
538.100	16.872	0.100
538.200	9.291	0.100
538.300	11.124	0.100
538.400	0.778	0.100
538.500	24.089	0.100
538.600	3.841	0.100
538.700	10.225	0.100
538.800	3.993	0.100
538.900	13.829	0.100
539.000	13.427	0.100
539.100	9.864	0.100
539.200	20.774	0.100
539.300	6.416	0.100
539.400	11.701	0.100
539.500	6.537	0.100
539.600	7.773	0.100
539.700	8.201	0.100
539.800	-11.786	0.100
539.900	10.987	0.100
540.000	2.192	0.100
540.100	16.348	0.100
540.200	8.762	0.100
540.300	15.361	0.100
540.400	15.717	0.100
540.500	-1.399	0.100
540.600	4.349	0.100
540.700	-4.634	0.100
540.800	5.614	0.100
540.900	-3.544	0.100
541.000	13.407	0.100
541.100	9.153	0.100
541.200	11.097	0.100
541.300	-0.407	0.100
541.400	14.824	0.100
541.500	12.941	0.100
541.600	12.738	0.100
541.700	9.048	0.100
541.800	-0.978	0.100
541.900	6.075	0.100
542.000	5.312	0.100
542.100	-5.747	0.100
542.200	0.840	0.100
542.300	-0.993	0.100
542.400	17.550	0.100
542.500	6.403	0.100
542.600	3.434	0.100
542.700	-2.907	0.100
542.800	12.255	0.100
542.900	4.320	0.100
543.000	2.334	0.100
543.100	4.483	0.100
543.200	-4.483	0.100
543.300	19.084	0.100
543.400	-4.240	0.100
543.500	17.367	0.100
543.600	5.617	0.100
543.700	15.593	0.100
543.800	9.837	0.100
543.900	3.972	0.100
544.000	8.215	0.100
544.100	11.504	0.100
544.200	19.465	0.100
544.300	0.069	0.100
544.400	10.882	0.100
544.500	5.403	0.100
544.600	10.055	0.100
544.700	0.206	0.100
544.800	0.933	0.100
544.900	-11.689	0.100
545.000	11.397	0.100
545.100	7.973	0.100
545.200	-7.094	0.100
545.300	0.898	0.100
545.400	1.010	0.100
545.500	6.396	0.100
545.600	-1.140	0.100
545.700	16.818	0.100
545.800	11.310	0.100
545.900	-20.276	0.100
546.000	14.174	0.100
546.100	17.409	0.100
546.200	-8.131	0.100
546.300	-3.076	0.100
546.400	6.109	0.100
546.500	11.077	0.100
546.600	-13.739	0.100
546.700	8.792	0.100
546.800	3.155	0.100
546.900	27.768	0.100
547.000	11.252	0.100
547.100	6.755	0.100
547.200	14.369	0.100
547.300	5.530	0.100
547.400	13.480	0.100
547.500	5.498	0.100
547.600	-7.771	0.100
547.700	18.252	0.100
547.800	12.945	0.100
547.900	-4.169	0.100
548.000	-2.426	0.100
548.100	4.701	0.100
548.200	7.916	0.100
548.300	-9.578	0.100
548.400	-3.268	0.100
548.500	8.903	0.100
548.600	-12.270	0.100
548.700	6.883	0.100
548.800	0.159	0.100
548.900	-3.059	0.100
549.000	2.636	0.100
549.100	13.819	0.100
549.200	0.657	0.100
549.300	-18.465	0.100
549.400	22.630	0.100
549.500	-13.652	0.100
549.600	-1.354	0.100
549.700	4.207	0.100
549.800	6.262	0.100
549.900	1.914	0.100
550.000	5.807	0.100
550.100	4.053	0.100
550.200	-8.933	0.100
550.300	-0.695	0.100
550.400	12.784	0.100
550.500	3.742	0.100
550.600	-10.183	0.100
550.700	19.720	0.100
550.800	8.672	0.100
550.900	-6.274	0.100
551.000	2.151	0.100
551.100	-9.855	0.100
551.200	-5.329	0.100
551.300	0.753	0.100
551.400	-4.952	0.100
551.500	-8.211	0.100
551.600	-6.788	0.100
551.700	3.407	0.100
551.800	1.308	0.100
551.900	9.715	0.100
552.000	-1.353	0.100
552.100	3.044	0.100
552.200	-11.891	0.100
552.300	3.109	0.100
552.400	14.016	0.100
552.500	4.059	0.100
552.600	11.056	0.100
552.700	-3.176	0.100
552.800	-14.922	0.100
552.900	4.136	0.100
553.000	-9.261	0.100
553.100	12.268	0.100
553.200	-3.076	0.100
553.300	-0.557	0.100
553.400	-4.232	0.100
553.500	-4.328	0.100
553.600	0.785	0.100
553.700	-0.540	0.100
553.800	0.179	0.100
553.900	6.980	0.100
554.000	-6.945	0.100
554.100	-2.676	0.100
554.200	10.482	0.100
554.300	18.576	0.100
554.400	-1.609	0.100
554.500	-1.782	0.100
554.600	-7.287	0.100
554.700	-17.316	0.100
554.800	-9.314	0.100
554.900	11.938	0.100
555.000	6.350	0.100
555.100	-2.614	0.100
555.200	11.087	0.100
555.300	-7.986	0.100
555.400	0.348	0.100
555.500	-13.769	0.100
555.600	-4.816	0.100
555.700	-5.772	0.100
555.800	0.537	0.100
555.900	8.025	0.100
556.000	10.544	0.100
556.100	-17.972	0.100
556.200	-17.752	0.100
556.300	-7.746	0.100
556.400	2.328	0.100
556.500	6.392	0.100
556.600	-5.603	0.100
556.700	-1.488	0.100
556.800	-6.696	0.100
556.900	-7.927	0.100
557.000	13.594	0.100
557.100	-18.891	0.100
557.200	8.578	0.100
557.300	-0.530	0.100
557.400	-14.005	0.100
557.500	-0.947	0.100
557.600	-4.582	0.100
557.700	-16.675	0.100
557.800	-7.380	0.100
557.900	8.037	0.100
558.000	-7.492	0.100
558.100	-5.095	0.100
558.200	-5.761	0.100
558.300	8.214	0.100
558.400	-15.032	0.100
558.500	-0.208	0.100
558.600	-1.455	0.100
558.700	9.801	0.100
558.800	-6.199	0.100
558.900	5.897	0.100
559.000	5.721	0.100
559.100	-10.098	0.100
559.200	-8.137	0.100
559.300	9.573	0.100
559.400	6.956	0.100
559.500	5.871	0.100
559.600	-2.755	0.100
559.700	-7.338	0.100
559.800	-9.275	0.100
559.900	-7.787	0.100
560.000	-8.461	0.100
560.100	8.356	0.100
560.200	-4.275	0.100
560.300	13.102	0.100
560.400	-13.168	0.100
560.500	-0.737	0.100
560.600	21.504	0.100
560.700	11.638	0.100
560.800	8.623	0.100
560.900	3.193	0.100
561.000	-14.339	0.100
561.100	-0.797	0.100
561.200	1.732	0.100
561.300	-2.770	0.100
561.400	-19.197	0.100
561.500	14.237	0.100
561.600	-2.012	0.100
561.700	-6.830	0.100
561.800	-2.928	0.100
561.900	3.109	0.100
562.000	2.111	0.100
562.100	3.515	0.100
562.200	-16.622	0.100
562.300	-12.545	0.100
562.400	-1.078	0.100
562.500	-5.681	0.100
562.600	5.141	0.100
562.700	-1.311	0.100
562.800	10.620	0.100
562.900	-16.955	0.100
563.000	-3.136	0.100
563.100	-16.279	0.100
563.200	1.177	0.100
563.300	0.179	0.100
563.400	-9.694	0.100
563.500	10.638	0.100
563.600	-7.680	0.100
563.700	-7.621	0.100
563.800	4.687	0.100
563.900	-6.211	0.100
564.000	15.950	0.100
564.100	6.887	0.100
564.200	2.908	0.100
564.300	-24.437	0.100
564.400	-7.102	0.100
564.500	-19.243	0.100
564.600	-2.039	0.100
564.700	6.686	0.100
564.800	-16.390	0.100
564.900	-5.783	0.100
565.000	3.326	0.100
565.100	10.773	0.100
565.200	-5.597	0.100
565.300	-9.343	0.100
565.400	-7.714	0.100
565.500	-9.321	0.100
565.600	-5.630	0.100
565.700	-1.872	0.100
565.800	-12.380	0.100
565.900	-8.276	0.100
566.000	14.262	0.100
566.100	9.577	0.100
566.200	0.149	0.100
566.300	-18.619	0.100
566.400	8.115	0.100
566.500	-6.249	0.100
566.600	-16.220	0.100
566.700	-9.776	0.100
566.800	1.973	0.100
566.900	-1.583	0.100
567.000	0.286	0.100
567.100	-13.409	0.100
567.200	-1.243	0.100
567.300	-14.108	0.100
567.400	-15.530	0.100
567.500	-2.788	0.100
567.600	-11.039	0.100
567.700	-1.363	0.100
567.800	9.257	0.100
567.900	-3.784	0.100
568.000	7.325	0.100
568.100	-6.849	0.100
568.200	-4.017	0.100
568.300	-15.181	0.100
568.400	7.482	0.100
568.500	-9.332	0.100
568.600	-8.795	0.100
568.700	-5.818	0.100
568.800	-11.920	0.100
568.900	-1.385	0.100
569.000	-3.840	0.100
569.100	3.453	0.100
569.200	-0.856	0.100
569.300	-10.096	0.100
569.400	-19.302	0.100
569.500	2.457	0.100
569.600	0.654	0.100
569.700	-3.393	0.100
569.800	-12.318	0.100
569.900	-0.025	0.100
570.000	10.387	0.100
570.100	7.742	0.100
570.200	-4.848	0.100
570.300	-13.814	0.100
570.400	-16.756	0.100
570.500	-6.755	0.100
570.600	-17.201	0.100
570.700	-5.613	0.100
570.800	1.283	0.100
570.900	-0.254	0.100
571.000	-2.088	0.100
571.100	-4.620	0.100
571.200	14.284	0.100
571.300	9.842	0.100
571.400	-20.331	0.100
571.500	-0.109	0.100
571.600	-9.092	0.100
571.700	-5.045	0.100
571.800	10.713	0.100
571.900	4.572	0.100
572.000	-1.695	0.100
572.100	-22.263	0.100
572.200	16.300	0.100
572.300	3.161	0.100
572.400	3.418	0.100
572.500	-0.712	0.100
572.600	15.254	0.100
572.700	20.137	0.100
572.800	6.992	0.100
572.900	-15.907	0.100
573.000	-15.429	0.100
573.100	10.177	0.100
573.200	-12.300	0.100
573.300	7.329	0.100
573.400	7.539	0.100
573.500	1.753	0.100
573.600	4.996	0.100
573.700	1.708	0.100
573.800	-6.943	0.100
573.900	-11.185	0.100
574.000	-16.447	0.100
574.100	-1.067	0.100
574.200	-4.400	0.100
574.300	-8.842	0.100
574.400	-1.428	0.100
574.500	5.169	0.100
574.600	-9.892	0.100
574.700	2.160	0.100
574.800	0.827	0.100
574.900	-8.435	0.100
575.000	3.887	0.100
575.100	-11.659	0.100
575.200	-0.424	0.100
575.300	0.000	0.100
575.400	9.651	0.100
575.500	3.799	0.100
575.600	-11.689	0.100
575.700	2.802	0.100
575.800	-9.993	0.100
575.900	13.728	0.100
576.000	-4.404	0.100
576.100	2.596	0.100
576.200	-16.877	0.100
576.300	-13.087	0.100
576.400	0.885	0.100
576.500	0.021	0.100
576.600	6.270	0.100
576.700	-2.163	0.100
576.800	0.175	0.100
576.900	2.453	0.100
577.000	3.870	0.100
577.100	-13.667	0.100
577.200	14.881	0.100
577.300	-3.204	0.100
577.400	-4.913	0.100
577.500	-15.310	0.100
577.600	-9.965	0.100
577.700	6.033	0.100
577.800	-10.182	0.100
577.900	0.308	0.100
578.000	-6.873	0.100
578.100	5.073	0.100
578.200	-1.533	0.100
578.300	-1.253	0.100
578.400	5.163	0.100
578.500	-19.660	0.100
578.600	-9.038	0.100
578.700	-5.520	0.100
578.800	-1.154	0.100
578.900	-14.254	0.100
579.000	-9.631	0.100
579.100	-12.899	0.100
579.200	-19.734	0.100
579.300	6.659	0.100
579.400	6.850	0.100
579.500	-0.195	0.100
579.600	8.041	0.100
579.700	-2.436	0.100
579.800	2.378	0.100
579.900	3.801	0.100
580.000	-15.103	0.100
580.100	19.529	0.100
580.200	11.873	0.100
580.300	-5.334	0.100
580.400	-8.317	0.100
580.500	-13.909	0.100
580.600	-12.360	0.100
580.700	15.469	0.100
580.800	-12.254	0.100
580.900	6.970	0.100
581.000	5.420	0.100
581.100	-7.553	0.100
581.200	-2.821	0.100
581.300	-17.630	0.100
581.400	-1.586	0.100
581.500	3.941	0.100
581.600	-5.294	0.100
581.700	-14.810	0.100
581.800	1.340	0.100
581.900	-13.485	0.100
582.000	5.084	0.100
582.100	-1.274	0.100
582.200	12.011	0.100
582.300	1.096	0.100
582.400	6.088	0.100
582.500	-7.587	0.100
582.600	14.043	0.100
582.700	-8.525	0.100
582.800	-7.037	0.100
582.900	-6.741	0.100
583.000	-5.323	0.100
583.100	-12.326	0.100
583.200	-2.341	0.100
583.300	0.118	0.100
583.400	10.475	0.100
583.500	-5.845	0.100
583.600	-3.662	0.100
583.700	1.119	0.100
583.800	-8.265	0.100
583.900	14.713	0.100
584.000	-29.221	0.100
584.100	4.389	0.100
584.200	11.398	0.100
584.300	7.197	0.100
584.400	-4.500	0.100
584.500	10.914	0.100
584.600	3.833	0.100
584.700	-19.575	0.100
584.800	0.484	0.100
584.900	-0.459	0.100
585.000	4.710	0.100
585.100	6.408	0.100
585.200	-19.728	0.100
585.300	-2.761	0.100
585.400	11.162	0.100
585.500	1.082	0.100
585.600	-8.379	0.100
585.700	13.636	0.100
585.800	-13.804	0.100
585.900	5.790	0.100
586.000	-2.238	0.100
586.100	-7.837	0.100
586.200	-11.689	0.100
586.300	-7.329	0.100
586.400	-10.044	0.100
586.500	9.131	0.100
586.600	-2.236	0.100
586.700	-10.957	0.100
586.800	-11.508	0.100
586.900	-6.441	0.100
587.000	23.186	0.100
587.100	-3.742	0.100
587.200	-3.005	0.100
587.300	-4.620	0.100
587.400	-18.995	0.100
587.500	15.716	0.100
587.600	-14.711	0.100
587.700	-17.382	0.100
587.800	2.717	0.100
587.900	-6.993	0.100
588.000	3.377	0.100
588.100	-3.814	0.100
588.200	-4.445	0.100
588.300	10.032	0.100
588.400	6.424	0.100
588.500	17.917	0.100
588.600	-6.827	0.100
588.700	-0.156	0.100
588.800	-2.943	0.100
588.900	-15.249	0.100
589.000	6.587	0.100
589.100	17.713	0.100
589.200	5.915	0.100
589.300	3.474	0.100
589.400	-3.373	0.100
589.500	-4.184	0.100
589.600	9.089	0.100
589.700	0.475	0.100
589.800	-12.992	0.100
589.900	6.347	0.100
590.000	-4.391	0.100
590.100	3.666	0.100
590.200	-5.544	0.100
590.300	1.976	0.100
590.400	-9.705	0.100
590.500	3.538	0.100
590.600	-1.529	0.100
590.700	-15.433	0.100
590.800	1.397	0.100
590.900	12.376	0.100
591.000	-2.291	0.100
591.100	-4.752	0.100
591.200	10.019	0.100
591.300	-12.072	0.100
591.400	0.194	0.100
591.500	0.583	0.100
591.600	6.963	0.100
591.700	-5.619	0.100
591.800	4.231	0.100
591.900	3.834	0.100
592.000	-12.651	0.100
592.100	4.995	0.100
592.200	-4.694	0.100
592.300	-13.682	0.100
592.400	7.382	0.100
592.500	4.182	0.100
592.600	8.496	0.100
592.700	-6.194	0.100
592.800	-4.072	0.100
592.900	-31.868	0.100
593.000	4.062	0.100
593.100	4.377	0.100
593.200	0.990	0.100
593.300	2.159	0.100
593.400	-3.036	0.100
593.500	-10.439	0.100
593.600	1.575	0.100
593.700	-7.176	0.100
593.800	-5.428	0.100
593.900	-6.016	0.100
594.000	7.388	0.100
594.100	1.990	0.100
594.200	-11.535	0.100
594.300	-11.982	0.100
594.400	3.354	0.100
594.500	9.121	0.100
594.600	-19.451	0.100
594.700	-8.158	0.100
594.800	-9.441	0.100
594.900	-13.592	0.100
595.000	-10.576	0.100
595.100	4.069	0.100
595.200	4.791	0.100
595.300	11.445	0.100
595.400	-8.551	0.100
595.500	-15.346	0.100
595.600	13.320	0.100
595.700	-13.959	0.100
595.800	2.770	0.100
595.900	4.626	0.100
596.000	18.741	0.100
596.100	5.822	0.100
596.200	23.354	0.100
596.300	0.408	0.100
596.400	1.070	0.100
596.500	-9.227	0.100
596.600	-5.972	0.100
596.700	-5.362	0.100
596.800	8.086	0.100
596.900	0.768	0.100
597.000	-7.330	0.100
597.100	-6.723	0.100
597.200	11.844	0.100
597.300	14.046	0.100
597.400	-7.373	0.100
597.500	-2.184	0.100
597.600	3.159	0.100
597.700	16.496	0.100
597.800	11.195	0.100
597.900	-7.314	0.100
598.000	9.572	0.100
598.100	12.039	0.100
598.200	-14.797	0.100
598.300	-2.335	0.100
598.400	1.508	0.100
598.500	-8.869	0.100
598.600	-1.290	0.100
598.700	-8.989	0.100
598.800	-4.982	0.100
598.900	6.064	0.100
599.000	-2.539	0.100
599.100	-5.130	0.100
599.200	-1.098	0.100
599.300	-10.181	0.100
599.400	-20.131	0.100
599.500	0.553	0.100
599.600	1.158	0.100
599.700	9.162	0.100
599.800	-5.283	0.100
599.900	4.918	0.100
600.000	-7.022	0.100
600.100	-3.071	0.100
600.200	-10.925	0.100
600.300	23.577	0.100
600.400	14.157	0.100
600.500	-1.292	0.100
600.600	2.907	0.100
600.700	-7.020	0.100
600.800	9.042	0.100
600.900	1.368	0.100
601.000	-1.184	0.100
601.100	-3.406	0.100
601.200	-12.739	0.100
601.300	6.552	0.100
601.400	12.362	0.100
601.500	1.428	0.100
601.600	6.909	0.100
601.700	2.121	0.100
601.800	7.211	0.100
601.900	-5.837	0.100
602.000	4.036	0.100
602.100	1.720	0.100
602.200	-1.109	0.100
602.300	3.419	0.100
602.400	6.734	0.100
602.500	11.128	0.100
602.600	-6.575	0.100
602.700	6.362	0.100
602.800	-4.958	0.100
602.900	18.536	0.100
603.000	-7.334	0.100
603.100	-5.056	0.100
603.200	0.583	0.100
603.300	-10.069	0.100
603.400	4.392	0.100
603.500	-3.519	0.100
603.600	15.885	0.100
603.700	5.528	0.100
603.800	-0.504	0.100
603.900	1.818	0.100
604.000	-13.563	0.100
604.100	-1.701	0.100
604.200	2.868	0.100
604.300	4.571	0.100
604.400	12.064	0.100
604.500	-15.509	0.100
604.600	-10.066	0.100
604.700	-12.587	0.100
604.800	-16.317	0.100
604.900	1.436	0.100
605.000	13.793	0.100
605.100	-5.403	0.100
605.200	4.638	0.100
605.300	3.197	0.100
605.400	8.380	0.100
605.500	-8.692	0.100
605.600	10.237	0.100
605.700	5.297	0.100
605.800	7.101	0.100
605.900	5.467	0.100
606.000	-3.763	0.100
606.100	0.558	0.100
606.200	13.211	0.100
606.300	-0.165	0.100
606.400	-17.993	0.100
606.500	6.492	0.100
606.600	10.775	0.100
606.700	-13.076	0.100
606.800	-9.042	0.100
606.900	6.734	0.100
607.000	-4.834	0.100
607.100	-4.181	0.100
607.200	1.991	0.100
607.300	-7.653	0.100
607.400	7.324	0.100
607.500	-8.459	0.100
607.600	-12.054	0.100
607.700	-2.215	0.100
607.800	5.650	0.100
607.900	-6.887	0.100
608.000	2.022	0.100
608.100	-9.580	0.100
608.200	0.084	0.100
608.300	9.577	0.100
608.400	5.332	0.100
608.500	-17.060	0.100
608.600	-2.061	0.100
608.700	9.643	0.100
608.800	2.333	0.100
608.900	-5.636	0.100
609.000	18.680	0.100
609.100	3.026	0.100
609.200	21.335	0.100
609.300	4.328	0.100
609.400	-8.996	0.100
609.500	3.089	0.100
609.600	-19.089	0.100
609.700	-4.340	0.100
609.800	6.384	0.100
609.900	1.072	0.100
610.000	-14.333	0.100
610.100	7.795	0.100
610.200	-9.765	0.100
610.300	-3.498	0.100
610.400	4.231	0.100
610.500	18.640	0.100
610.600	1.509	0.100
610.700	0.593	0.100
610.800	7.123	0.100
610.900	-0.235	0.100
611.000	25.495	0.100
611.100	10.263	0.100
611.200	-3.834	0.100
611.300	23.833	0.100
611.400	-0.197	0.100
611.500	-0.124	0.100
611.600	6.971	0.100
611.700	-5.207	0.100
611.800	1.093	0.100
611.900	-1.693	0.100
612.000	3.715	0.100
612.100	6.229	0.100
612.200	-0.572	0.100
612.300	10.242	0.100
612.400	-2.717	0.100
612.500	-1.784	0.100
612.600	-7.217	0.100
612.700	1.761	0.100
612.800	12.570	0.100
612.900	-5.625	0.100
613.000	-6.075	0.100
613.100	-1.736	0.100
613.200	-2.667	0.100
613.300	-12.679	0.100
613.400	-5.666	0.100
613.500	-4.596	0.100
613.600	14.457	0.100
613.700	-14.614	0.100
613.800	-5.403	0.100
613.900	13.193	0.100
614.000	-13.644	0.100
614.100	13.497	0.100
614.200	9.178	0.100
614.300	-1.707	0.100
614.400	11.051	0.100
614.500	4.119	0.100
614.600	6.461	0.100
614.700	-10.498	0.100
614.800	6.750	0.100
614.900	1.696	0.100
615.000	-4.461	0.100
615.100	-0.442	0.100
615.200	-4.378	0.100
615.300	-5.605	0.100
615.400	-2.005	0.100
615.500	8.977	0.100
615.600	1.798	0.100
615.700	3.321	0.100
615.800	5.275	0.100
615.900	0.990	0.100
616.000	-11.907	0.100
616.100	-1.618	0.100
616.200	7.640	0.100
616.300	10.515	0.100
616.400	3.874	0.100
616.500	9.355	0.100
616.600	-7.704	0.100
616.700	-22.349	0.100
616.800	15.869	0.100
616.900	-4.290	0.100
617.000	19.464	0.100
617.100	-4.967	0.100
617.200	-4.603	0.100
617.300	-3.449	0.100
617.400	10.687	0.100
617.500	-2.241	0.100
617.600	8.334	0.100
617.700	-4.858	0.100
617.800	3.885	0.100
617.900	2.858	0.100
618.000	-4.393	0.100
618.100	-8.512	0.100
618.200	10.440	0.100
618.300	-5.325	0.100
618.400	-6.663	0.100
618.500	-12.327	0.100
618.600	-3.967	0.100
618.700	11.375	0.100
618.800	-17.507	0.100
618.900	15.271	0.100
619.000	-17.731	0.100
619.100	-2.233	0.100
619.200	6.223	0.100
619.300	-0.471	0.100
619.400	-9.978	0.100
619.500	5.816	0.100
619.600	-2.497	0.100
619.700	-9.590	0.100
619.800	15.862	0.100
619.900	-4.961	0.100
620.000	-0.489	0.100
620.100	-1.376	0.100
620.200	15.764	0.100
620.300	3.485	0.100
620.400	11.429	0.100
620.500	9.046	0.100
620.600	-4.405	0.100
620.700	19.057	0.100
620.800	0.893	0.100
620.900	-1.364	0.100
621.000	14.175	0.100
621.100	18.774	0.100
621.200	-21.592	0.100
621.300	7.140	0.100
621.400	-6.905	0.100
621.500	-6.434	0.100
621.600	1.098	0.100
621.700	1.323	0.100
621.800	-6.818	0.100
621.900	5.505	0.100
622.000	8.475	0.100
622.100	-3.833	0.100
622.200	3.538	0.100
622.300	19.362	0.100
622.400	2.353	0.100
622.500	-7.290	0.100
622.600	-0.160	0.100
622.700	1.091	0.100
622.800	-14.488	0.100
622.900	20.304	0.100
623.000	2.385	0.100
623.100	-10.217	0.100
623.200	-4.933	0.100
623.300	-5.177	0.100
623.400	3.561	0.100
623.500	-1.276	0.100
623.600	3.948	0.100
623.700	13.397	0.100
623.800	-6.529	0.100
623.900	1.009	0.100
624.000	-5.536	0.100
624.100	4.363	0.100
624.200	-2.540	0.100
624.300	9.466	0.100
624.400	4.208	0.100
624.500	-2.092	0.100
624.600	13.291	0.100
624.700	4.503	0.100
624.800	-2.667	0.100
624.900	11.393	0.100
625.000	-3.242	0.100
625.100	11.650	0.100
625.200	-2.260	0.100
625.300	6.174	0.100
625.400	-15.571	0.100
625.500	7.846	0.100
625.600	11.437	0.100
625.700	-14.199	0.100
625.800	23.670	0.100
625.900	-23.883	0.100
626.000	15.795	0.100
626.100	1.399	0.100
626.200	-0.682	0.100
626.300	-0.513	0.100
626.400	-6.470	0.100
626.500	7.894	0.100
626.600	-1.572	0.100
626.700	0.237	0.100
626.800	0.539	0.100
626.900	12.108	0.100
627.000	0.033	0.100
627.100	-8.098	0.100
627.200	12.224	0.100
627.300	-10.570	0.100
627.400	8.702	0.100
627.500	5.693	0.100
627.600	-4.070	0.100
627.700	-7.461	0.100
627.800	-3.548	0.100
627.900	13.507	0.100
628.000	10.875	0.100
628.100	-18.697	0.100
628.200	12.661	0.100
628.300	-8.882	0.100
628.400	28.012	0.100
628.500	-5.016	0.100
628.600	3.363	0.100
628.700	4.520	0.100
628.800	-5.201	0.100
628.900	-10.954	0.100
629.000	2.771	0.100
629.100	-0.204	0.100
629.200	-3.973	0.100
629.300	5.021	0.100
629.400	-6.746	0.100
629.500	12.648	0.100
629.600	11.355	0.100
629.700	15.483	0.100
629.800	14.576	0.100
629.900	11.797	0.100
630.000	32.197	0.100
630.100	23.192	0.100
630.200	4.679	0.100
630.300	6.229	0.100
630.400	7.904	0.100
630.500	10.968	0.100
630.600	13.604	0.100
630.700	12.483	0.100
630.800	7.314	0.100
630.900	-0.722	0.100
631.000	18.572	0.100
631.100	9.084	0.100
631.200	2.562	0.100
631.300	8.207	0.100
631.400	-1.949	0.100
631.500	10.750	0.100
631.600	6.186	0.100
631.700	8.891	0.100
631.800	21.372	0.100
631.900	5.615	0.100
632.000	2.687	0.100
632.100	3.651	0.100
632.200	-3.232	0.100
632.300	3.856	0.100
632.400	12.832	0.100
632.500	14.918	0.100
632.600	4.929	0.100
632.700	12.290	0.100
632.800	16.398	0.100
632.900	-2.382	0.100
633.000	15.578	0.100
633.100	17.299	0.100
633.200	9.741	0.100
633.300	-0.086	0.100
633.400	5.710	0.100
633.500	1.565	0.100
633.600	23.650	0.100
633.700	24.825	0.100
633.800	8.749	0.100
633.900	-0.530	0.100
634.000	-1.523	0.100
634.100	11.804	0.100
634.200	7.508	0.100
634.300	16.680	0.100
634.400	13.198	0.100
634.500	8.696	0.100
634.600	2.353	0.100
634.700	5.500	0.100
634.800	15.840	0.100
634.900	16.409	0.100
635.000	16.888	0.100
635.100	10.430	0.100
635.200	14.357	0.100
635.300	-9.143	0.100
635.400	9.853	0.100
635.500	25.308	0.100
635.600	7.106	0.100
635.700	1.872	0.100
635.800	19.673	0.100
635.900	15.817	0.100
636.000	9.885	0.100
636.100	7.617	0.100
636.200	13.290	0.100
636.300	19.595	0.100
636.400	11.029	0.100
636.500	17.853	0.100
636.600	9.748	0.100
636.700	6.631	0.100
636.800	3.867	0.100
636.900	19.198	0.100
637.000	4.005	0.100
637.100	25.950	0.100
637.200	10.443	0.100
637.300	26.198	0.100
637.400	12.893	0.100
637.500	19.417	0.100
637.600	16.578	0.100
637.700	6.624	0.100
637.800	10.588	0.100
637.900	11.073	0.100
638.000	-5.871	0.100
638.100	2.698	0.100
638.200	0.405	0.100
638.300	14.699	0.100
638.400	2.530	0.100
638.500	11.890	0.100
638.600	31.340	0.100
638.700	25.575	0.100
638.800	16.300	0.100
638.900	20.369	0.100
639.000	19.109	0.100
639.100	16.756	0.100
639.200	11.083	0.100
639.300	4.286	0.100
639.400	17.709	0.100
639.500	16.812	0.100
639.600	16.946	0.100
639.700	7.844	0.100
639.800	19.734	0.100
639.900	25.549	0.100
640.000	11.808	0.100
640.100	7.240	0.100
640.200	6.292	0.100
640.300	-6.053	0.100
640.400	10.988	0.100
640.500	19.923	0.100
640.600	3.994	0.100
640.700	-7.294	0.100
640.800	23.570	0.100
640.900	14.206	0.100
641.000	23.371	0.100
641.100	19.244	0.100
641.200	20.455	0.100
641.300	11.601	0.100
641.400	25.364	0.100
641.500	6.939	0.100
641.600	-1.511	0.100
641.700	33.649	0.100
641.800	0.169	0.100
641.900	19.795	0.100
642.000	-1.822	0.100
642.100	20.332	0.100
642.200	13.533	0.100
642.300	9.869	0.100
642.400	8.879	0.100
642.500	29.446	0.100
642.600	0.474	0.100
642.700	0.070	0.100
642.800	-4.616	0.100
642.900	-0.197	0.100
643.000	15.769	0.100
643.100	21.585	0.100
643.200	4.073	0.100
643.300	11.767	0.100
643.400	15.794	0.100
643.500	-6.059	0.100
643.600	5.159	0.100
643.700	18.158	0.100
643.800	20.699	0.100
643.900	11.411	0.100
644.000	17.435	0.100
644.100	5.422	0.100
644.200	11.898	0.100
644.300	24.933	0.100
644.400	28.484	0.100
644.500	17.364	0.100
644.600	10.790	0.100
644.700	9.526	0.100
644.800	-1.015	0.100
644.900	13.415	0.100
645.000	21.615	0.100
645.100	13.444	0.100
645.200	17.567	0.100
645.300	17.449	0.100
645.400	5.872	0.100
645.500	26.171	0.100
645.600	5.337	0.100
645.700	18.577	0.100
645.800	23.517	0.100
645.900	25.499	0.100
646.000	1.753	0.100
646.100	5.164	0.100
646.200	4.816	0.100
646.300	7.663	0.100
646.400	12.458	0.100
646.500	6.522	0.100
646.600	25.690	0.100
646.700	6.631	0.100
646.800	1.905	0.100
646.900	10.980	0.100
647.000	0.413	0.100
647.100	18.691	0.100
647.200	11.217	0.100
647.300	16.455	0.100
647.400	9.555	0.100
647.500	4.050	0.100
647.600	7.780	0.100
647.700	8.180	0.100
647.800	26.151	0.100
647.900	19.635	0.100
648.000	8.893	0.100
648.100	22.793	0.100
648.200	11.269	0.100
648.300	8.449	0.100
648.400	6.508	0.100
648.500	21.325	0.100
648.600	9.945	0.100
648.700	14.309	0.100
648.800	-2.006	0.100
648.900	5.441	0.100
649.000	9.687	0.100
649.100	9.430	0.100
649.200	8.821	0.100
649.300	3.455	0.100
649.400	18.647	0.100
649.500	-1.201	0.100
649.600	15.696	0.100
649.700	20.208	0.100
649.800	6.853	0.100
649.900	7.836	0.100
650.000	16.656	0.100
650.100	8.633	0.100
650.200	15.301	0.100
650.300	0.757	0.100
650.400	19.559	0.100
650.500	18.126	0.100
650.600	7.387	0.100
650.700	20.965	0.100
650.800	14.385	0.100
650.900	13.779	0.100
651.000	14.498	0.100
651.100	9.419	0.100
651.200	11.498	0.100
651.300	-0.002	0.100
651.400	28.118	0.100
651.500	11.375	0.100
651.600	9.127	0.100
651.700	5.120	0.100
651.800	11.797	0.100
651.900	15.808	0.100
652.000	0.292	0.100
652.100	12.573	0.100
652.200	13.562	0.100
652.300	8.669	0.100
652.400	-4.084	0.100
652.500	1.318	0.100
652.600	12.588	0.100
652.700	15.140	0.100
652.800	7.947	0.100
652.900	12.176	0.100
653.000	-3.654	0.100
653.100	5.341	0.100
653.200	0.107	0.100
653.300	29.127	0.100
653.400	13.721	0.100
653.500	6.161	0.100
653.600	11.528	0.100
653.700	9.001	0.100
653.800	9.768	0.100
653.900	10.081	0.100
654.000	9.479	0.100
654.100	13.068	0.100
654.200	2.907	0.100
654.300	30.442	0.100
654.400	4.674	0.100
654.500	2.480	0.100
654.600	4.907	0.100
654.700	-4.557	0.100
654.800	28.207	0.100
654.900	17.492	0.100
655.000	6.410	0.100
655.100	10.094	0.100
655.200	11.754	0.100
655.300	24.316	0.100
655.400	15.964	0.100
655.500	14.226	0.100
655.600	17.682	0.100
655.700	8.836	0.100
655.800	13.277	0.100
655.900	4.940	0.100
656.000	9.784	0.100
656.100	10.283	0.100
656.200	-9.664	0.100
656.300	6.462	0.100
656.400	18.333	0.100
656.500	20.208	0.100
656.600	-7.132	0.100
656.700	12.066	0.100
656.800	6.457	0.100
656.900	-4.480	0.100
657.000	12.851	0.100
657.100	5.377	0.100
657.200	11.515	0.100
657.300	-2.018	0.100
657.400	0.553	0.100
657.500	15.455	0.100
657.600	11.983	0.100
657.700	23.453	0.100
657.800	-0.724	0.100
657.900	2.013	0.100
658.000	5.068	0.100
658.100	6.111	0.100
658.200	18.938	0.100
658.300	4.586	0.100
658.400	23.281	0.100
658.500	6.389	0.100
658.600	16.716	0.100
658.700	11.369	0.100
658.800	7.981	0.100
658.900	12.920	0.100
659.000	16.121	0.100
659.100	0.968	0.100
659.200	19.855	0.100
659.300	6.132	0.100
659.400	0.914	0.100
659.500	20.067	0.100
659.600	14.541	0.100
659.700	11.603	0.100
659.800	8.695	0.100
659.900	17.517	0.100
660.000	16.312	0.100
660.100	4.926	0.100
660.200	15.161	0.100
660.300	2.102	0.100
660.400	13.250	0.100
660.500	15.860	0.100
660.600	11.230	0.100
660.700	18.297	0.100
660.800	-0.214	0.100
660.900	14.983	0.100
661.000	9.541	0.100
661.100	15.876	0.100
661.200	15.656	0.100
661.300	28.136	0.100
661.400	9.293	0.100
661.500	-6.570	0.100
661.600	38.126	0.100
661.700	28.541	0.100
661.800	-6.927	0.100
661.900	12.402	0.100
662.000	14.646	0.100
662.100	20.318	0.100
662.200	21.037	0.100
662.300	0.425	0.100
662.400	8.290	0.100
662.500	25.723	0.100
662.600	21.308	0.100
662.700	-1.315	0.100
662.800	1.345	0.100
662.900	11.314	0.100
663.000	9.960	0.100
663.100	25.775	0.100
663.200	14.679	0.100
663.300	9.620	0.100
663.400	-1.714	0.100
663.500	31.822	0.100
663.600	31.111	0.100
663.700	15.068	0.100
663.800	0.009	0.100
663.900	-12.233	0.100
664.000	33.907	0.100
664.100	1.506	0.100
664.200	6.586	0.100
664.300	4.474	0.100
664.400	13.136	0.100
664.500	8.753	0.100
664.600	14.864	0.100
664.700	16.157	0.100
664.800	17.802	0.100
664.900	7.867	0.100
665.000	1.815	0.100
665.100	7.469	0.100
665.200	19.101	0.100
665.300	15.270	0.100
665.400	8.642	0.100
665.500	2.868	0.100
665.600	12.544	0.100
665.700	4.905	0.100
665.800	11.125	0.100
665.900	0.915	0.100
666.000	14.269	0.100
666.100	11.755	0.100
666.200	0.523	0.100
666.300	9.104	0.100
666.400	7.760	0.100
666.500	0.110	0.100
666.600	31.852	0.100
666.700	11.955	0.100
666.800	17.782	0.100
666.900	5.482	0.100
667.000	19.400	0.100
667.100	4.333	0.100
667.200	19.644	0.100
667.300	2.215	0.100
667.400	12.977	0.100
667.500	11.715	0.100
667.600	12.798	0.100
667.700	11.533	0.100
667.800	16.311	0.100
667.900	19.794	0.100
668.000	2.334	0.100
668.100	12.359	0.100
668.200	21.306	0.100
668.300	22.385	0.100
668.400	12.086	0.100
668.500	19.281	0.100
668.600	13.944	0.100
668.700	15.221	0.100
668.800	-3.566	0.100
668.900	13.193	0.100
669.000	8.048	0.100
669.100	7.715	0.100
669.200	17.297	0.100
669.300	-3.705	0.100
669.400	5.581	0.100
669.500	10.267	0.100
669.600	8.518	0.100
669.700	4.690	0.100
669.800	18.638	0.100
669.900	28.160	0.100
670.000	18.502	0.100
670.100	18.873	0.100
670.200	6.837	0.100
670.300	19.532	0.100
670.400	14.371	0.100
670.500	23.019	0.100
670.600	3.438	0.100
670.700	16.845	0.100
670.800	37.952	0.100
670.900	5.221	0.100
671.000	18.055	0.100
671.100	4.651	0.100
671.200	-1.185	0.100
671.300	2.650	0.100
671.400	2.444	0.100
671.500	18.817	0.100
671.600	10.897	0.100
671.700	4.266	0.100
671.800	9.573	0.100
671.900	17.816	0.100
672.000	13.796	0.100
672.100	11.645	0.100
672.200	-1.867	0.100
672.300	-10.960	0.100
672.400	15.017	0.100
672.500	-2.463	0.100
672.600	2.808	0.100
672.700	0.984	0.100
672.800	-4.675	0.100
672.900	17.948	0.100
673.000	18.043	0.100
673.100	17.325	0.100
673.200	-0.437	0.100
673.300	8.562	0.100
673.400	-2.177	0.100
673.500	-6.484	0.100
673.600	11.331	0.100
673.700	13.744	0.100
673.800	14.372	0.100
673.900	3.765	0.100
674.000	-2.324	0.100
674.100	9.751	0.100
674.200	28.388	0.100
674.300	9.023	0.100
674.400	4.342	0.100
674.500	20.013	0.100
674.600	6.760	0.100
674.700	9.348	0.100
674.800	-7.256	0.100
674.900	12.320	0.100
675.000	11.878	0.100
675.100	15.778	0.100
675.200	10.413	0.100
675.300	1.939	0.100
675.400	2.219	0.100
675.500	-6.054	0.100
675.600	4.127	0.100
675.700	23.206	0.100
675.800	14.489	0.100
675.900	22.571	0.100
676.000	7.767	0.100
676.100	9.535	0.100
676.200	5.351	0.100
676.300	10.782	0.100
676.400	10.617	0.100
676.500	16.306	0.100
676.600	4.104	0.100
676.700	1.748	0.100
676.800	2.338	0.100
676.900	19.661	0.100
677.000	-9.826	0.100
677.100	17.515	0.100
677.200	9.614	0.100
677.300	26.933	0.100
677.400	12.729	0.100
677.500	28.895	0.100
677.600	8.748	0.100
677.700	-5.420	0.100
677.800	17.256	0.100
677.900	-1.612	0.100
678.000	10.540	0.100
678.100	11.629	0.100
678.200	1.647	0.100
678.300	17.511	0.100
678.400	18.478	0.100
678.500	12.268	0.100
678.600	20.724	0.100
678.700	9.760	0.100
678.800	7.071	0.100
678.900	10.996	0.100
679.000	34.500	0.100
679.100	9.432	0.100
679.200	17.162	0.100
679.300	4.319	0.100
679.400	14.212	0.100
679.500	-4.055	0.100
679.600	0.438	0.100
679.700	5.042	0.100
679.800	8.420	0.100
679.900	13.140	0.100
680.000	18.376	0.100
680.100	19.915	0.100
680.200	-13.831	0.100
680.300	6.703	0.100
680.400	15.752	0.100
680.500	8.972	0.100
680.600	7.156	0.100
680.700	19.695	0.100
680.800	2.600	0.100
680.900	16.007	0.100
681.000	18.541	0.100
681.100	1.808	0.100
681.200	5.765	0.100
681.300	22.040	0.100
681.400	20.052	0.100
681.500	0.573	0.100
681.600	-0.071	0.100
681.700	4.576	0.100
681.800	1.966	0.100
681.900	27.879	0.100
682.000	0.572	0.100
682.100	21.012	0.100
682.200	14.869	0.100
682.300	-9.105	0.100
682.400	-10.024	0.100
682.500	20.679	0.100
682.600	7.021	0.100
682.700	42.477	0.100
682.800	2.020	0.100
682.900	1.696	0.100
683.000	-1.300	0.100
683.100	15.239	0.100
683.200	7.809	0.100
683.300	9.786	0.100
683.400	1.182	0.100
683.500	2.984	0.100
683.600	1.434	0.100
683.700	13.047	0.100
683.800	18.113	0.100
683.900	17.374	0.100
684.000	2.205	0.100
684.100	14.164	0.100
684.200	17.795	0.100
684.300	11.263	0.100
684.400	17.662	0.100
684.500	14.140	0.100
684.600	-3.873	0.100
684.700	16.363	0.100
684.800	8.597	0.100
684.900	-4.839	0.100
685.000	25.673	0.100
685.100	13.227	0.100
685.200	9.178	0.100
685.300	10.571	0.100
685.400	5.025	0.100
685.500	31.027	0.100
685.600	20.570	0.100
685.700	8.496	0.100
685.800	14.448	0.100
685.900	9.356	0.100
686.000	25.336	0.100
686.100	-7.673	0.100
686.200	8.828	0.100
686.300	23.173	0.100
686.400	12.610	0.100
686.500	-2.605	0.100
686.600	9.205	0.100
686.700	3.087	0.100
686.800	12.385	0.100
686.900	16.781	0.100
687.000	10.947	0.100
687.100	11.411	0.100
687.200	13.065	0.100
687.300	2.252	0.100
687.400	14.362	0.100
687.500	3.843	0.100
687.600	12.940	0.100
687.700	19.191	0.100
687.800	15.803	0.100
687.900	13.526	0.100
688.000	0.139	0.100
688.100	21.266	0.100
688.200	24.533	0.100
688.300	7.387	0.100
688.400	11.776	0.100
688.500	33.250	0.100
688.600	0.401	0.100
688.700	4.133	0.100
688.800	16.778	0.100
688.900	5.252	0.100
689.000	-2.817	0.100
689.100	3.821	0.100
689.200	17.922	0.100
689.300	13.426	0.100
689.400	-5.843	0.100
689.500	-4.638	0.100
689.600	10.636	0.100
689.700	11.253	0.100
689.800	17.992	0.100
689.900	1.800	0.100
690.000	-0.280	0.100
690.100	17.161	0.100
690.200	1.541	0.100
690.300	7.958	0.100
690.400	14.726	0.100
690.500	7.457	0.100
690.600	4.914	0.100
690.700	19.338	0.100
690.800	-9.643	0.100
690.900	6.815	0.100
691.000	12.520	0.100
691.100	11.593	0.100
691.200	2.515	0.100
691.300	9.883	0.100
691.400	3.212	0.100
691.500	9.731	0.100
691.600	25.303	0.100
691.700	9.014	0.100
691.800	8.717	0.100
691.900	13.553	0.100
692.000	1.826	0.100
692.100	2.018	0.100
692.200	4.377	0.100
692.300	4.964	0.100
692.400	15.064	0.100
692.500	5.450	0.100
692.600	16.532	0.100
692.700	-1.853	0.100
692.800	17.860	0.100
692.900	7.003	0.100
693.000	3.024	0.100
693.100	3.260	0.100
693.200	9.358	0.100
693.300	-12.192	0.100
693.400	0.534	0.100
693.500	3.961	0.100
693.600	5.591	0.100
693.700	26.361	0.100
693.800	0.559	0.100
693.900	12.798	0.100
694.000	-7.185	0.100
694.100	-6.406	0.100
694.200	-8.030	0.100
694.300	22.985	0.100
694.400	26.340	0.100
694.500	-0.183	0.100
694.600	10.092	0.100
694.700	2.118	0.100
694.800	5.318	0.100
694.900	2.094	0.100
695.000	-0.840	0.100
695.100	5.296	0.100
695.200	31.472	0.100
695.300	-3.681	0.100
695.400	3.469	0.100
695.500	7.939	0.100
695.600	6.021	0.100
695.700	17.209	0.100
695.800	0.065	0.100
695.900	-2.991	0.100
696.000	2.099	0.100
696.100	-28.535	0.100
696.200	-7.394	0.100
696.300	-6.297	0.100
696.400	2.687	0.100
696.500	1.973	0.100
696.600	11.595	0.100
696.700	-1.632	0.100
696.800	-13.213	0.100
696.900	-4.621	0.100
697.000	0.616	0.100
697.100	-1.486	0.100
697.200	10.486	0.100
697.300	-1.631	0.100
697.400	9.458	0.100
697.500	-7.018	0.100
697.600	-9.416	0.100
697.700	-1.174	0.100
697.800	8.139	0.100
697.900	3.204	0.100
698.000	10.056	0.100
698.100	-4.120	0.100
698.200	-2.769	0.100
698.300	9.055	0.100
698.400	8.158	0.100
698.500	7.174	0.100
698.600	5.902	0.100
698.700	-8.778	0.100
698.800	-7.629	0.100
698.900	-14.328	0.100
699.000	13.200	0.100
699.100	0.299	0.100
699.200	-6.065	0.100
699.300	-3.108	0.100
699.400	-1.350	0.100
699.500	-0.570	0.100
699.600	-0.406	0.100
699.700	1.762	0.100
699.800	-2.238	0.100
699.900	4.720	0.100
700.000	-6.163	0.100
700.100	10.171	0.100
700.200	-7.475	0.100
700.300	4.267	0.100
700.400	-16.252	0.100
700.500	9.202	0.100
700.600	6.934	0.100
700.700	-6.783	0.100
700.800	7.124	0.100
700.900	2.845	0.100
701.000	2.126	0.100
701.100	-7.003	0.100
701.200	2.611	0.100
701.300	11.135	0.100
701.400	-5.337	0.100
701.500	7.029	0.100
701.600	1.573	0.100
701.700	8.364	0.100
701.800	-9.160	0.100
701.900	7.233	0.100
702.000	-10.406	0.100
702.100	14.835	0.100
702.200	-1.120	0.100
702.300	6.488	0.100
702.400	12.336	0.100
702.500	-2.123	0.100
702.600	-8.062	0.100
702.700	-2.679	0.100
702.800	1.302	0.100
702.900	4.434	0.100
703.000	-5.482	0.100
703.100	7.982	0.100
703.200	-0.226	0.100
703.300	1.470	0.100
703.400	0.925	0.100
703.500	4.119	0.100
703.600	-17.861	0.100
703.700	-1.552	0.100
703.800	-5.277	0.100
703.900	11.863	0.100
704.000	-2.136	0.100
704.100	-13.475	0.100
704.200	-12.001	0.100
704.300	-6.956	0.100
704.400	-8.008	0.100
704.500	13.054	0.100
704.600	-13.615	0.100
704.700	-7.783	0.100
704.800	-7.334	0.100
704.900	-12.097	0.100
705.000	-2.401	0.100
705.100	-2.279	0.100
705.200	-2.284	0.100
705.300	15.121	0.100
705.400	1.321	0.100
705.500	6.172	0.100
705.600	-0.673	0.100
705.700	2.717	0.100
705.800	-15.172	0.100
705.900	-13.797	0.100
706.000	9.261	0.100
706.100	3.944	0.100
706.200	2.686	0.100
706.300	3.305	0.100
706.400	-19.399	0.100
706.500	4.133	0.100
706.600	-6.210	0.100
706.700	-9.480	0.100
706.800	2.243	0.100
706.900	-0.625	0.100
707.000	7.290	0.100
707.100	-6.078	0.100
707.200	12.706	0.100
707.300	-6.300	0.100
707.400	-15.832	0.100
707.500	2.301	0.100
707.600	2.408	0.100
707.700	10.324	0.100
707.800	-16.845	0.100
707.900	1.334	0.100
708.000	12.412	0.100
708.100	-2.373	0.100
708.200	-14.065	0.100
708.300	-10.735	0.100
708.400	3.027	0.100
708.500	-6.553	0.100
708.600	-3.143	0.100
708.700	-5.258	0.100
708.800	4.798	0.100
708.900	-11.963	0.100
709.000	-10.866	0.100
709.100	21.948	0.100
709.200	-11.913	0.100
709.300	0.289	0.100
709.400	-7.159	0.100
709.500	-0.256	0.100
709.600	6.074	0.100
709.700	-17.412	0.100
709.800	17.946	0.100
709.900	-4.210	0.100
710.000	4.171	0.100
710.100	-7.152	0.100
710.200	-4.345	0.100
710.300	-4.566	0.100
710.400	-8.949	0.100
710.500	-10.661	0.100
710.600	-12.338	0.100
710.700	-0.991	0.100
710.800	-19.666	0.100
710.900	-9.341	0.100
711.000	-1.116	0.100
711.100	-7.371	0.100
711.200	-9.751	0.100
711.300	-0.315	0.100
711.400	-4.000	0.100
711.500	-9.232	0.100
711.600	-3.682	0.100
711.700	-15.126	0.100
711.800	-2.405	0.100
711.900	9.222	0.100
712.000	-6.747	0.100
712.100	3.783	0.100
712.200	-11.915	0.100
712.300	15.180	0.100
712.400	0.992	0.100
712.500	3.401	0.100
712.600	-0.888	0.100
712.700	-15.147	0.100
712.800	-25.678	0.100
712.900	-8.663	0.100
713.000	-10.308	0.100
713.100	2.740	0.100
713.200	-3.377	0.100
713.300	6.343	0.100
713.400	-4.952	0.100
713.500	8.805	0.100
713.600	-5.674	0.100
713.700	5.465	0.100
713.800	-4.831	0.100
713.900	1.243	0.100
714.000	-10.180	0.100
714.100	-4.067	0.100
714.200	-8.258	0.100
714.300	-4.115	0.100
714.400	-14.618	0.100
714.500	-15.908	0.100
714.600	3.081	0.100
714.700	4.819	0.100
714.800	-4.326	0.100
714.900	-2.446	0.100
715.000	9.550	0.100
715.100	9.468	0.100
715.200	3.156	0.100
715.300	-8.962	0.100
715.400	-14.581	0.100
715.500	-7.423	0.100
715.600	-13.949	0.100
715.700	10.778	0.100
715.800	-4.694	0.100
715.900	-2.878	0.100
716.000	-3.141	0.100
716.100	-27.358	0.100
716.200	-0.576	0.100
716.300	-12.478	0.100
716.400	6.124	0.100
716.500	18.025	0.100
716.600	-1.097	0.100
716.700	-9.148	0.100
716.800	-12.417	0.100
716.900	-12.561	0.100
717.000	2.814	0.100
717.100	16.954	0.100
717.200	-13.981	0.100
717.300	-4.750	0.100
717.400	14.968	0.100
717.500	2.528	0.100
717.600	-13.979	0.100
717.700	-0.929	0.100
717.800	-2.789	0.100
717.900	3.996	0.100
718.000	-12.117	0.100
718.100	-13.308	0.100
718.200	1.843	0.100
718.300	1.195	0.100
718.400	-4.649	0.100
718.500	-3.891	0.100
718.600	-1.525	0.100
718.700	-18.205	0.100
718.800	0.517	0.100
718.900	-0.149	0.100
719.000	-1.315	0.100
719.100	-12.612	0.100
719.200	-9.716	0.100
719.300	-9.394	0.100
719.400	5.107	0.100
719.500	-7.466	0.100
719.600	-7.285	0.100
719.700	-30.553	0.100
719.800	-23.128	0.100
719.900	14.734	0.100
720.000	0.304	0.100
720.100	-27.522	0.100
720.200	-7.509	0.100
720.300	-6.092	0.100
720.400	-5.042	0.100
720.500	-4.710	0.100
720.600	26.068	0.100
720.700	-0.409	0.100
720.800	-8.789	0.100
720.900	1.060	0.100
721.000	-13.897	0.100
721.100	-2.837	0.100
721.200	15.073	0.100
721.300	9.984	0.100
721.400	-4.604	0.100
721.500	-9.707	0.100
721.600	3.089	0.100
721.700	-9.776	0.100
721.800	-7.551	0.100
721.900	-7.087	0.100
722.000	0.902	0.100
722.100	1.724	0.100
722.200	-18.791	0.100
722.300	-13.451	0.100
722.400	-7.505	0.100
722.500	10.531	0.100
722.600	7.759	0.100
722.700	-9.955	0.100
722.800	1.903	0.100
722.900	-2.424	0.100
723.000	-1.254	0.100
723.100	-15.928	0.100
723.200	-18.526	0.100
723.300	5.672	0.100
723.400	0.593	0.100
723.500	-27.531	0.100
723.600	4.530	0.100
723.700	9.110	0.100
723.800	7.489	0.100
723.900	-13.560	0.100
724.000	-4.212	0.100
724.100	15.381	0.100
724.200	1.055	0.100
724.300	-8.811	0.100
724.400	9.976	0.100
724.500	2.784	0.100
724.600	-7.804	0.100
724.700	-7.641	0.100
724.800	-2.552	0.100
724.900	-0.510	0.100
725.000	-9.239	0.100
725.100	3.666	0.100
725.200	13.177	0.100
725.300	-11.783	0.100
725.400	6.036	0.100
725.500	4.851	0.100
725.600	10.890	0.100
725.700	0.850	0.100
725.800	-2.039	0.100
725.900	4.804	0.100
726.000	-0.633	0.100
726.100	-18.233	0.100
726.200	4.593	0.100
726.300	3.117	0.100
726.400	-5.762	0.100
726.500	-0.998	0.100
726.600	7.426	0.100
726.700	2.972	0.100
726.800	-2.818	0.100
726.900	-11.227	0.100
727.000	0.335	0.100
727.100	-8.798	0.100
727.200	5.811	0.100
727.300	-2.792	0.100
727.400	-11.911	0.100
727.500	0.135	0.100
727.600	7.656	0.100
727.700	-5.383	0.100
727.800	-2.242	0.100
727.900	-12.904	0.100
728.000	0.185	0.100
728.100	6.121	0.100
728.200	9.525	0.100
728.300	-13.791	0.100
728.400	-18.801	0.100
728.500	-11.537	0.100
728.600	-1.380	0.100
728.700	-7.254	0.100
728.800	-6.831	0.100
728.900	-3.502	0.100
729.000	-8.084	0.100
729.100	-15.455	0.100
729.200	0.341	0.100
729.300	11.330	0.100
729.400	1.746	0.100
729.500	-15.160	0.100
729.600	-12.409	0.100
729.700	11.904	0.100
729.800	-9.406	0.100
729.900	2.684	0.100
730.000	2.458	0.100
730.100	-13.760	0.100
730.200	4.095	0.100
730.300	2.349	0.100
730.400	8.242	0.100
730.500	-2.482	0.100
730.600	4.726	0.100
730.700	17.219	0.100
730.800	-3.479	0.100
730.900	20.641	0.100
731.000	-17.575	0.100
731.100	3.088	0.100
731.200	-18.675	0.100
731.300	-2.228	0.100
731.400	-11.246	0.100
731.500	9.701	0.100
731.600	-0.925	0.100
731.700	-2.721	0.100
731.800	2.671	0.100
731.900	8.008	0.100
732.000	0.350	0.100
732.100	-5.033	0.100
732.200	-6.220	0.100
732.300	-3.535	0.100
732.400	-2.886	0.100
732.500	-5.267	0.100
732.600	5.828	0.100
732.700	-16.841	0.100
732.800	-7.068	0.100
732.900	-16.100	0.100
733.000	-10.847	0.100
733.100	-1.374	0.100
733.200	1.690	0.100
733.300	-6.558	0.100
733.400	-20.617	0.100
733.500	-11.119	0.100
733.600	-2.596	0.100
733.700	-4.232	0.100
733.800	2.469	0.100
733.900	12.285	0.100
734.000	-3.606	0.100
734.100	-4.688	0.100
734.200	-8.100	0.100
734.300	-7.996	0.100
734.400	-1.367	0.100
734.500	1.450	0.100
734.600	-8.049	0.100
734.700	-7.793	0.100
734.800	0.562	0.100
734.900	-24.484	0.100
735.000	-1.611	0.100
735.100	5.356	0.100
735.200	5.035	0.100
735.300	9.471	0.100
735.400	-1.544	0.100
735.500	-13.765	0.100
735.600	-13.675	0.100
735.700	3.256	0.100
735.800	-17.040	0.100
735.900	12.948	0.100
736.000	-8.333	0.100
736.100	-0.758	0.100
736.200	-7.950	0.100
736.300	-11.801	0.100
736.400	-5.846	0.100
736.500	-2.792	0.100
736.600	17.667	0.100
736.700	-24.652	0.100
736.800	-0.549	0.100
736.900	-4.582	0.100
737.000	3.054	0.100
737.100	5.147	0.100
737.200	-7.851	0.100
737.300	2.890	0.100
737.400	1.594	0.100
737.500	-5.432	0.100
737.600	8.036	0.100
737.700	8.505	0.100
737.800	10.325	0.100
737.900	0.333	0.100
738.000	-2.633	0.100
738.100	-5.708	0.100
738.200	-0.754	0.100
738.300	-9.674	0.100
738.400	6.773	0.100
738.500	-4.747	0.100
738.600	1.053	0.100
738.700	1.366	0.100
738.800	5.916	0.100
738.900	-0.415	0.100
739.000	-0.402	0.100
739.100	1.118	0.100
739.200	-9.518	0.100
739.300	12.400	0.100
739.400	10.874	0.100
739.500	13.209	0.100
739.600	-9.276	0.100
739.700	-1.597	0.100
739.800	2.977	0.100
739.900	6.551	0.100
740.000	-4.415	0.100
740.100	2.397	0.100
740.200	-7.633	0.100
740.300	-6.811	0.100
740.400	-19.151	0.100
740.500	2.513	0.100
740.600	-2.801	0.100
740.700	-3.882	0.100
740.800	16.514	0.100
740.900	-8.645	0.100
741.000	-11.767	0.100
741.100	-8.054	0.100
741.200	1.085	0.100
741.300	2.829	0.100
741.400	5.497	0.100
741.500	-9.185	0.100
741.600	20.588	0.100
741.700	-18.506	0.100
741.800	7.784	0.100
741.900	-11.055	0.100
742.000	5.423	0.100
742.100	-2.050	0.100
742.200	8.235	0.100
742.300	9.865	0.100
742.400	7.073	0.100
742.500	-19.202	0.100
742.600	-1.387	0.100
742.700	5.577	0.100
742.800	-1.159	0.100
742.900	-12.257	0.100
743.000	7.466	0.100
743.100	-5.904	0.100
743.200	3.160	0.100
743.300	-7.057	0.100
743.400	-7.713	0.100
743.500	6.218	0.100
743.600	-5.605	0.100
743.700	2.105	0.100
743.800	-5.818	0.100
743.900	-13.076	0.100
744.000	16.066	0.100
744.100	-13.773	0.100
744.200	5.652	0.100
744.300	5.858	0.100
744.400	1.647	0.100
744.500	7.788	0.100
744.600	2.480	0.100
744.700	1.258	0.100
744.800	-3.240	0.100
744.900	-6.968	0.100
745.000	-6.381	0.100
745.100	18.391	0.100
745.200	-14.528	0.100
745.300	7.113	0.100
745.400	0.727	0.100
745.500	2.507	0.100
745.600	3.690	0.100
745.700	0.268	0.100
745.800	1.323	0.100
745.900	-11.034	0.100
746.000	-21.301	0.100
746.100	6.038	0.100
746.200	-13.351	0.100
746.300	34.068	0.100
746.400	4.902	0.100
746.500	1.478	0.100
746.600	0.302	0.100
746.700	-4.890	0.100
746.800	9.556	0.100
746.900	4.377	0.100
747.000	-10.252	0.100
747.100	10.711	0.100
747.200	-10.636	0.100
747.300	-7.393	0.100
747.400	0.981	0.100
747.500	-14.193	0.100
747.600	1.398	0.100
747.700	11.866	0.100
747.800	-4.180	0.100
747.900	7.418	0.100
748.000	-1.074	0.100
748.100	16.828	0.100
748.200	-11.194	0.100
748.300	-4.960	0.100
748.400	1.046	0.100
748.500	-9.527	0.100
748.600	-5.944	0.100
748.700	-17.427	0.100
748.800	1.839	0.100
748.900	-1.805	0.100
749.000	-0.516	0.100
749.100	3.616	0.100
749.200	15.459	0.100
749.300	-4.059	0.100
749.400	17.654	0.100
749.500	-0.798	0.100
749.600	-10.874	0.100
749.700	-10.455	0.100
749.800	-0.816	0.100
749.900	9.922	0.100
750.000	-3.216	0.100
750.100	-12.241	0.100
750.200	-6.222	0.100
750.300	0.155	0.100
750.400	6.456	0.100
750.500	9.773	0.100
750.600	0.629	0.100
750.700	-0.901	0.100
750.800	-3.835	0.100
750.900	0.781	0.100
751.000	-6.943	0.100
751.100	-5.036	0.100
751.200	0.840	0.100
751.300	-4.462	0.100
751.400	-10.790	0.100
751.500	11.430	0.100
751.600	-26.607	0.100
751.700	-9.654	0.100
751.800	4.045	0.100
751.900	-8.794	0.100
752.000	-3.473	0.100
752.100	15.731	0.100
752.200	3.620	0.100
752.300	3.691	0.100
752.400	14.986	0.100
752.500	12.089	0.100
752.600	8.882	0.100
752.700	-0.195	0.100
752.800	-1.775	0.100
752.900	-5.483	0.100
753.000	4.222	0.100
753.100	5.409	0.100
753.200	-14.249	0.100
753.300	-0.974	0.100
753.400	-5.260	0.100
753.500	0.905	0.100
753.600	6.228	0.100
753.700	-14.436	0.100
753.800	17.418	0.100
753.900	10.215	0.100
754.000	-0.951	0.100
754.100	-2.037	0.100
754.200	-8.662	0.100
754.300	-0.125	0.100
754.400	-1.312	0.100
754.500	-5.548	0.100
754.600	5.632	0.100
754.700	0.840	0.100
754.800	-7.779	0.100
754.900	-12.254	0.100
755.000	9.714	0.100
755.100	-3.925	0.100
755.200	-6.348	0.100
755.300	8.698	0.100
755.400	8.337	0.100
755.500	8.566	0.100
755.600	-8.536	0.100
755.700	0.983	0.100
755.800	-1.142	0.100
755.900	10.809	0.100
756.000	-2.430	0.100
756.100	3.901	0.100
756.200	-4.038	0.100
756.300	9.043	0.100
756.400	-2.022	0.100
756.500	-2.265	0.100
756.600	9.530	0.100
756.700	8.603	0.100
756.800	7.303	0.100
756.900	4.767	0.100
757.000	-10.637	0.100
757.100	-13.306	0.100
757.200	4.714	0.100
757.300	14.905	0.100
757.400	8.383	0.100
757.500	-9.897	0.100
757.600	-0.751	0.100
757.700	1.065	0.100
757.800	-0.669	0.100
757.900	-1.591	0.100
758.000	9.843	0.100
758.100	-8.109	0.100
758.200	17.757	0.100
758.300	4.891	0.100
758.400	-1.861	0.100
758.500	-2.901	0.100
758.600	-8.250	0.100
758.700	6.781	0.100
758.800	4.750	0.100
758.900	8.835	0.100
759.000	4.051	0.100
759.100	13.516	0.100
759.200	-12.379	0.100
759.300	-7.756	0.100
759.400	7.836	0.100
759.500	7.783	0.100
759.600	2.740	0.100
759.700	-7.807	0.100
759.800	8.975	0.100
759.900	-4.335	0.100
760.000	-5.353	0.100
760.100	-3.111	0.100
760.200	-5.464	0.100
760.300	-1.024	0.100
760.400	6.422	0.100
760.500	14.005	0.100
760.600	7.282	0.100
760.700	8.547	0.100
760.800	4.652	0.100
760.900	-17.024	0.100
761.000	-8.991	0.100
761.100	4.150	0.100
761.200	2.871	0.100
761.300	-7.736	0.100
761.400	-12.202	0.100
761.500	4.907	0.100
761.600	-3.561	0.100
761.700	6.540	0.100
761.800	-10.043	0.100
761.900	3.628	0.100
762.000	3.845	0.100
762.100	-1.687	0.100
762.200	-0.360	0.100
762.300	4.453	0.100
762.400	15.133	0.100
762.500	1.122	0.100
762.600	3.002	0.100
762.700	-11.472	0.100
762.800	-9.226	0.100
762.900	2.775	0.100
763.000	-0.172	0.100
763.100	3.213	0.100
763.200	2.709	0.100
763.300	13.973	0.100
763.400	4.923	0.100
763.500	8.513	0.100
763.600	4.329	0.100
763.700	11.387	0.100
763.800	-3.041	0.100
763.900	-2.327	0.100
764.000	-9.178	0.100
764.100	5.361	0.100
764.200	8.366	0.100
764.300	4.085	0.100
764.400	-18.539	0.100
764.500	8.808	0.100
764.600	-9.748	0.100
764.700	12.377	0.100
764.800	1.510	0.100
764.900	-7.408	0.100
765.000	16.525	0.100
765.100	2.550	0.100
765.200	6.155	0.100
765.300	-2.069	0.100
765.400	-3.763	0.100
765.500	-3.886	0.100
765.600	2.459	0.100
765.700	9.794	0.100
765.800	-10.614	0.100
765.900	4.215	0.100
766.000	-9.718	0.100
766.100	-14.139	0.100
766.200	-26.802	0.100
766.300	-9.576	0.100
766.400	15.067	0.100
766.500	10.972	0.100
766.600	3.679	0.100
766.700	-12.094	0.100
766.800	-7.248	0.100
766.900	-10.928	0.100
767.000	-7.408	0.100
767.100	-1.555	0.100
767.200	18.165	0.100
767.300	-0.061	0.100
767.400	-10.304	0.100
767.500	-2.641	0.100
767.600	-1.885	0.100
767.700	3.097	0.100
767.800	-3.567	0.100
767.900	-16.802	0.100
768.000	-0.273	0.100
768.100	2.421	0.100
768.200	8.945	0.100
768.300	-8.898	0.100
768.400	0.209	0.100
768.500	-6.602	0.100
768.600	-4.444	0.100
768.700	1.943	0.100
768.800	9.579	0.100
768.900	-3.680	0.100
769.000	-2.104	0.100
769.100	12.908	0.100
769.200	-12.711	0.100
769.300	5.185	0.100
769.400	10.098	0.100
769.500	2.769	0.100
769.600	-10.315	0.100
769.700	7.632	0.100
769.800	22.106	0.100
769.900	-1.960	0.100
770.000	-2.404	0.100
770.100	1.991	0.100
770.200	1.296	0.100
770.300	4.088	0.100
770.400	-13.037	0.100
770.500	-15.174	0.100
770.600	0.760	0.100
770.700	-18.603	0.100
770.800	9.046	0.100
770.900	-11.285	0.100
771.000	6.459	0.100
771.100	-4.463	0.100
771.200	25.679	0.100
771.300	-1.067	0.100
771.400	-3.530	0.100
771.500	-0.076	0.100
771.600	-13.586	0.100
771.700	-10.947	0.100
771.800	-4.527	0.100
771.900	-11.133	0.100
772.000	7.435	0.100
772.100	4.996	0.100
772.200	-2.563	0.100
772.300	-7.532	0.100
772.400	-16.669	0.100
772.500	7.080	0.100
772.600	-13.524	0.100
772.700	13.125	0.100
772.800	-18.772	0.100
772.900	7.062	0.100
773.000	-5.915	0.100
773.100	-3.577	0.100
773.200	9.667	0.100
773.300	4.238	0.100
773.400	14.678	0.100
773.500	-12.680	0.100
773.600	11.126	0.100
773.700	-3.743	0.100
773.800	7.683	0.100
773.900	-7.960	0.100
774.000	2.720	0.100
774.100	-10.919	0.100
774.200	4.671	0.100
774.300	-9.722	0.100
774.400	2.414	0.100
774.500	-11.898	0.100
774.600	4.444	0.100
774.700	7.449	0.100
774.800	3.209	0.100
774.900	-6.654	0.100
775.000	12.268	0.100
775.100	5.600	0.100
775.200	3.272	0.100
775.300	6.114	0.100
775.400	-2.551	0.100
775.500	11.715	0.100
775.600	13.718	0.100
775.700	-0.584	0.100
775.800	-12.621	0.100
775.900	5.764	0.100
776.000	-1.984	0.100
776.100	-10.313	0.100
776.200	5.127	0.100
776.300	1.645	0.100
776.400	-2.386	0.100
776.500	-8.870	0.100
776.600	-6.372	0.100
776.700	10.828	0.100
776.800	-1.579	0.100
776.900	3.237	0.100
777.000	-5.702	0.100
777.100	0.139	0.100
777.200	-6.650	0.100
777.300	-7.800	0.100
777.400	-0.856	0.100
777.500	-2.172	0.100
777.600	4.930	0.100
777.700	-6.503	0.100
777.800	-6.333	0.100
777.900	-7.909	0.100
778.000	14.450	0.100
778.100	-3.613	0.100
778.200	-8.974	0.100
778.300	3.097	0.100
778.400	2.472	0.100
778.500	-3.323	0.100
778.600	-7.156	0.100
778.700	0.364	0.100
778.800	-2.472	0.100
778.900	20.963	0.100
779.000	-15.108	0.100
779.100	-3.806	0.100
779.200	6.314	0.100
779.300	-0.876	0.100
779.400	22.276	0.100
779.500	-5.081	0.100
779.600	11.476	0.100
779.700	9.072	0.100
779.800	-11.276	0.100
779.900	-4.775	0.100
780.000	15.800	0.100
780.100	-15.641	0.100
780.200	11.939	0.100
780.300	-3.389	0.100
780.400	0.638	0.100
780.500	21.546	0.100
780.600	12.738	0.100
780.700	19.692	0.100
780.800	11.963	0.100
780.900	11.564	0.100
781.000	22.651	0.100
781.100	-8.472	0.100
781.200	11.402	0.100
781.300	18.686	0.100
781.400	2.241	0.100
781.500	13.581	0.100
781.600	-9.055	0.100
781.700	0.940	0.100
781.800	7.270	0.100
781.900	2.137	0.100
782.000	13.170	0.100
782.100	9.272	0.100
782.200	9.216	0.100
782.300	10.354	0.100
782.400	-1.117	0.100
782.500	4.089	0.100
782.600	-2.352	0.100
782.700	11.556	0.100
782.800	-0.287	0.100
782.900	18.149	0.100
783.000	7.572	0.100
783.100	4.191	0.100
783.200	4.906	0.100
783.300	21.289	0.100
783.400	3.613	0.100
783.500	13.566	0.100
783.600	4.593	0.100
783.700	1.671	0.100
783.800	7.353	0.100
783.900	14.837	0.100
784.000	9.125	0.100
784.100	6.893	0.100
784.200	16.191	0.100
784.300	31.634	0.100
784.400	3.259	0.100
784.500	21.352	0.100
784.600	2.541	0.100
784.700	-1.942	0.100
784.800	30.505	0.100
784.900	15.892	0.100
785.000	-2.680	0.100
785.100	11.739	0.100
785.200	21.403	0.100
785.300	13.658	0.100
785.400	12.597	0.100
785.500	-7.637	0.100
785.600	17.940	0.100
785.700	0.149	0.100
785.800	25.109	0.100
785.900	0.404	0.100
786.000	10.415	0.100
786.100	15.685	0.100
786.200	4.250	0.100
786.300	4.088	0.100
786.400	18.774	0.100
786.500	25.248	0.100
786.600	-6.718	0.100
786.700	18.453	0.100
786.800	-1.471	0.100
786.900	11.603	0.100
787.000	11.831	0.100
787.100	6.247	0.100
787.200	17.980	0.100
787.300	15.864	0.100
787.400	6.622	0.100
787.500	6.556	0.100
787.600	0.473	0.100
787.700	31.558	0.100
787.800	8.364	0.100
787.900	27.390	0.100
788.000	19.870	0.100
788.100	0.823	0.100
788.200	8.504	0.100
788.300	4.303	0.100
788.400	14.987	0.100
788.500	19.045	0.100
788.600	19.091	0.100
788.700	4.620	0.100
788.800	16.528	0.100
788.900	6.761	0.100
789.000	7.763	0.100
789.100	18.152	0.100
789.200	13.408	0.100
789.300	11.306	0.100
789.400	-6.399	0.100
789.500	16.589	0.100
789.600	20.775	0.100
789.700	21.979	0.100
789.800	19.337	0.100
789.900	23.456	0.100
790.000	21.713	0.100
790.100	14.612	0.100
790.200	13.944	0.100
790.300	9.346	0.100
790.400	-1.527	0.100
790.500	25.247	0.100
790.600	1.513	0.100
790.700	11.685	0.100
790.800	2.503	0.100
790.900	18.010	0.100
791.000	0.221	0.100
791.100	25.699	0.100
791.200	22.563	0.100
791.300	8.947	0.100
791.400	9.242	0.100
791.500	16.739	0.100
791.600	11.441	0.100
791.700	1.582	0.100
791.800	10.220	0.100
791.900	2.415	0.100
792.000	12.110	0.100
792.100	19.839	0.100
792.200	1.126	0.100
792.300	2.939	0.100
792.400	17.451	0.100
792.500	-1.011	0.100
792.600	11.963	0.100
792.700	14.564	0.100
792.800	20.444	0.100
792.900	6.150	0.100
793.000	9.122	0.100
793.100	9.077	0.100
793.200	15.785	0.100
793.300	11.136	0.100
793.400	22.140	0.100
793.500	14.908	0.100
793.600	8.394	0.100
793.700	6.347	0.100
793.800	17.785	0.100
793.900	15.698	0.100
794.000	20.783	0.100
794.100	11.702	0.100
794.200	17.240	0.100
794.300	-3.034	0.100
794.400	11.763	0.100
794.500	9.749	0.100
794.600	11.016	0.100
794.700	3.408	0.100
794.800	9.804	0.100
794.900	15.137	0.100
795.000	-2.082	0.100
795.100	-0.712	0.100
795.200	13.261	0.100
795.300	-2.491	0.100
795.400	1.354	0.100
795.500	13.509	0.100
795.600	-1.263	0.100
795.700	6.140	0.100
795.800	10.890	0.100
795.900	7.327	0.100
796.000	12.991	0.100
796.100	4.710	0.100
796.200	13.207	0.100
796.300	22.070	0.100
796.400	-8.931	0.100
796.500	9.699	0.100
796.600	15.789	0.100
796.700	7.366	0.100
796.800	17.446	0.100
796.900	26.595	0.100
797.000	15.509	0.100
797.100	4.608	0.100
797.200	11.905	0.100
797.300	7.254	0.100
797.400	-2.186	0.100
797.500	13.456	0.100
797.600	5.782	0.100
797.700	0.588	0.100
797.800	9.506	0.100
797.900	11.073	0.100
798.000	32.765	0.100
798.100	9.974	0.100
798.200	22.769	0.100
798.300	2.090	0.100
798.400	18.060	0.100
798.500	11.783	0.100
798.600	4.521	0.100
798.700	7.860	0.100
798.800	-3.239	0.100
798.900	12.202	0.100
799.000	14.918	0.100
799.100	13.770	0.100
799.200	19.279	0.100
799.300	10.520	0.100
799.400	15.961	0.100
799.500	11.851	0.100
799.600	18.894	0.100
799.700	13.575	0.100
799.800	6.629	0.100
799.900	11.420	0.100
800.000	1.221	0.100
