time /s	I /nA	E /V
0.100	-30.780	0.100
0.200	-20.428	0.100
0.300	-30.820	0.100
0.400	-26.312	0.100
0.500	-36.020	0.100
0.600	-38.888	0.100
0.700	-39.394	0.100
0.800	-24.462	0.100
0.900	-19.755	0.100
1.000	-28.613	0.100
1.100	-33.174	0.100
1.200	-30.744	0.100
1.300	-34.999	0.100
1.400	-36.941	0.100
1.500	-31.652	0.100
1.600	-29.916	0.100
1.700	-37.714	0.100
1.800	-31.589	0.100
1.900	-29.664	0.100
2.000	-28.970	0.100
2.100	-38.776	0.100
2.200	-32.792	0.100
2.300	-32.135	0.100
2.400	-40.769	0.100
2.500	-31.586	0.100
2.600	-28.792	0.100
2.700	-24.601	0.100
2.800	-38.684	0.100
2.900	-28.342	0.100
3.000	-26.418	0.100
3.100	-29.113	0.100
3.200	-28.355	0.100
3.300	-35.239	0.100
3.400	-31.952	0.100
3.500	-22.464	0.100
3.600	-35.580	0.100
3.700	-30.938	0.100
3.800	-35.481	0.100
3.900	-35.191	0.100
4.000	-25.758	0.100
4.100	-18.612	0.100
4.200	-35.544	0.100
4.300	-21.709	0.100
4.400	-35.380	0.100
4.500	-32.405	0.100
4.600	-36.025	0.100
4.700	-43.977	0.100
4.800	-39.931	0.100
4.900	-28.261	0.100
5.000	-23.738	0.100
5.100	-31.414	0.100
5.200	-36.266	0.100
5.300	-30.198	0.100
5.400	-31.624	0.100
5.500	-26.576	0.100
5.600	-37.425	0.100
5.700	-37.941	0.100
5.800	-30.627	0.100
5.900	-34.278	0.100
6.000	-23.769	0.100
6.100	-27.972	0.100
6.200	-31.265	0.100
6.300	-27.718	0.100
6.400	-35.632	0.100
6.500	-35.793	0.100
6.600	-38.785	0.100
6.700	-29.789	0.100
6.800	-22.921	0.100
6.900	-21.010	0.100
7.000	-29.579	0.100
7.100	-26.954	0.100
7.200	-26.869	0.100
7.300	-34.769	0.100
7.400	-23.823	0.100
7.500	-33.014	0.100
7.600	-34.390	0.100
7.700	-25.881	0.100
7.800	-35.663	0.100
7.900	-29.759	0.100
8.000	-31.886	0.100
8.100	-33.274	0.100
8.200	-31.813	0.100
8.300	-32.944	0.100
8.400	-28.318	0.100
8.500	-33.501	0.100
8.600	-34.597	0.100
8.700	-31.073	0.100
8.800	-33.442	0.100
8.900	-28.226	0.100
9.000	-26.366	0.100
9.100	-30.712	0.100
9.200	-32.451	0.100
9.300	-34.521	0.100
9.400	-26.595	0.100
9.500	-29.109	0.100
9.600	-36.019	0.100
9.700	-29.981	0.100
9.800	-41.465	0.100
9.900	-27.471	0.100
10.000	-19.978	0.100
10.100	-32.634	0.100
10.200	-31.441	0.100
10.300	-39.091	0.100
10.400	-34.158	0.100
10.500	-24.803	0.100
10.600	-28.064	0.100
10.700	-26.000	0.100
10.800	-26.350	0.100
10.900	-31.715	0.100
11.000	-33.564	0.100
11.100	-24.421	0.100
11.200	-22.461	0.100
11.300	-33.208	0.100
11.400	-40.188	0.100
11.500	-33.885	0.100
11.600	-28.493	0.100
11.700	-28.004	0.100
11.800	-43.772	0.100
11.900	-38.095	0.100
12.000	-18.486	0.100
12.100	-30.118	0.100
12.200	-27.956	0.100
12.300	-38.201	0.100
12.400	-25.351	0.100
12.500	-24.550	0.100
12.600	-20.684	0.100
12.700	-29.570	0.100
12.800	-36.578	0.100
12.900	-30.444	0.100
13.000	-28.409	0.100
13.100	-21.636	0.100
13.200	-34.061	0.100
13.300	-51.996	0.100
13.400	-28.930	0.100
13.500	-24.919	0.100
13.600	-29.914	0.100
13.700	-23.370	0.100
13.800	-28.422	0.100
13.900	-23.114	0.100
14.000	-30.267	0.100
14.100	-28.640	0.100
14.200	-24.681	0.100
14.300	-24.517	0.100
14.400	-37.043	0.100
14.500	-32.461	0.100
14.600	-30.274	0.100
14.700	-26.967	0.100
14.800	-30.288	0.100
14.900	-31.190	0.100
15.000	-29.639	0.100
15.100	-36.801	0.100
15.200	-23.889	0.100
15.300	-33.623	0.100
15.400	-31.277	0.100
15.500	-28.138	0.100
15.600	-25.647	0.100
15.700	-28.649	0.100
15.800	-33.568	0.100
15.900	-29.972	0.100
16.000	-31.263	0.100
16.100	-37.536	0.100
16.200	-33.185	0.100
16.300	-18.202	0.100
16.400	-20.705	0.100
16.500	-41.436	0.100
16.600	-30.909	0.100
16.700	-20.288	0.100
16.800	-23.379	0.100
16.900	-31.218	0.100
17.000	-32.600	0.100
17.100	-27.803	0.100
17.200	-26.634	0.100
17.300	-25.753	0.100
17.400	-30.709	0.100
17.500	-29.001	0.100
17.600	-25.988	0.100
17.700	-23.546	0.100
17.800	-30.214	0.100
17.900	-33.399	0.100
18.000	-37.656	0.100
18.100	-27.330	0.100
18.200	-29.300	0.100
18.300	-29.886	0.100
18.400	-29.066	0.100
18.500	-41.566	0.100
18.600	-24.186	0.100
18.700	-20.691	0.100
18.800	-30.137	0.100
18.900	-30.506	0.100
19.000	-28.536	0.100
19.100	-28.269	0.100
19.200	-32.256	0.100
19.300	-21.718	0.100
19.400	-29.268	0.100
19.500	-29.338	0.100
19.600	-27.771	0.100
19.700	-20.915	0.100
19.800	-29.912	0.100
19.900	-26.731	0.100
20.000	-25.404	0.100
20.100	-37.430	0.100
20.200	-24.536	0.100
20.300	-23.139	0.100
20.400	-22.772	0.100
20.500	-14.040	0.100
20.600	-28.141	0.100
20.700	-32.004	0.100
20.800	-22.932	0.100
20.900	-15.412	0.100
21.000	-39.131	0.100
21.100	-22.512	0.100
21.200	-26.784	0.100
21.300	-25.042	0.100
21.400	-21.177	0.100
21.500	-27.482	0.100
21.600	-31.245	0.100
21.700	-26.443	0.100
21.800	-27.623	0.100
21.900	-34.374	0.100
22.000	-21.714	0.100
22.100	-26.120	0.100
22.200	-33.013	0.100
22.300	-36.903	0.100
22.400	-28.785	0.100
22.500	-32.154	0.100
22.600	-37.516	0.100
22.700	-26.972	0.100
22.800	-24.385	0.100
22.900	-17.780	0.100
23.000	-22.662	0.100
23.100	-24.006	0.100
23.200	-24.256	0.100
23.300	-26.695	0.100
23.400	-30.050	0.100
23.500	-24.568	0.100
23.600	-34.644	0.100
23.700	-40.965	0.100
23.800	-35.073	0.100
23.900	-20.069	0.100
24.000	-30.068	0.100
24.100	-24.020	0.100
24.200	-22.624	0.099
24.300	-21.953	0.099
24.400	-27.199	0.099
24.500	-21.453	0.099
24.600	-34.329	0.099
24.700	-25.269	0.099
24.800	-34.923	0.099
24.900	-24.671	0.099
25.000	-30.968	0.099
25.100	-28.345	0.099
25.200	-22.804	0.099
25.300	-16.645	0.099
25.400	-26.719	0.099
25.500	-24.754	0.099
25.600	-18.877	0.099
25.700	-30.777	0.099
25.800	-35.645	0.099
25.900	-38.039	0.099
26.000	-21.212	0.099
26.100	-25.414	0.099
26.200	-41.595	0.099
26.300	-25.539	0.099
26.400	-28.020	0.099
26.500	-28.819	0.099
26.600	-28.219	0.099
26.700	-20.748	0.099
26.800	-22.480	0.099
26.900	-23.108	0.099
27.000	-25.378	0.099
27.100	-26.582	0.099
27.200	-29.893	0.099
27.300	-34.634	0.099
27.400	-22.577	0.099
27.500	-30.966	0.099
27.600	-28.626	0.099
27.700	-26.491	0.099
27.800	-27.662	0.099
27.900	-32.616	0.099
28.000	-13.184	0.099
28.100	-25.483	0.099
28.200	-23.971	0.099
28.300	-26.826	0.099
28.400	-41.804	0.099
28.500	-23.193	0.099
28.600	-30.680	0.099
28.700	-25.845	0.099
28.800	-21.007	0.099
28.900	-25.550	0.099
29.000	-28.636	0.099
29.100	-32.765	0.099
29.200	-14.413	0.099
29.300	-24.577	0.099
29.400	-20.686	0.099
29.500	-16.387	0.099
29.600	-30.487	0.099
29.700	-33.025	0.099
29.800	-47.112	0.099
29.900	-27.994	0.099
30.000	-20.874	0.099
30.100	-24.278	0.099
30.200	-25.307	0.099
30.300	-21.674	0.099
30.400	-31.449	0.099
30.500	-22.366	0.099
30.600	-36.682	0.099
30.700	-33.162	0.099
30.800	-29.840	0.099
30.900	-16.966	0.099
31.000	-16.283	0.099
31.100	-24.998	0.099
31.200	-20.714	0.099
31.300	-26.109	0.099
31.400	-32.400	0.099
31.500	-18.659	0.099
31.600	-28.692	0.099
31.700	-19.608	0.099
31.800	-17.384	0.099
31.900	-17.155	0.099
32.000	-22.862	0.099
32.100	-20.330	0.099
32.200	-25.015	0.099
32.300	-28.128	0.099
32.400	-23.489	0.099
32.500	-26.412	0.099
32.600	-20.824	0.099
32.700	-28.318	0.099
32.800	-14.844	0.099
32.900	-18.927	0.099
33.000	-18.992	0.099
33.100	-21.907	0.099
33.200	-8.329	0.099
33.300	-16.729	0.099
33.400	-16.769	0.099
33.500	-13.519	0.099
33.600	-22.198	0.099
33.700	-20.159	0.099
33.800	-20.133	0.099
33.900	-24.744	0.099
34.000	1.823	0.099
34.100	-4.611	0.099
34.200	-10.577	0.099
34.300	-19.167	0.099
34.400	-20.647	0.099
34.500	-14.167	0.099
34.600	-7.989	0.099
34.700	-12.076	0.099
34.800	-14.472	0.099
34.900	-9.336	0.099
35.000	-13.642	0.099
35.100	-18.456	0.099
35.200	-18.171	0.099
35.300	-24.785	0.099
35.400	-16.017	0.099
35.500	-14.985	0.099
35.600	-17.740	0.099
35.700	-12.226	0.099
35.800	-8.052	0.099
35.900	-10.350	0.099
36.000	-16.682	0.099
36.100	-12.708	0.099
36.200	-25.477	0.099
36.300	-12.788	0.099
36.400	-22.721	0.099
36.500	-16.269	0.099
36.600	-19.324	0.099
36.700	-34.625	0.099
36.800	-19.749	0.099
36.900	-17.820	0.099
37.000	-15.449	0.099
37.100	-12.862	0.099
37.200	-19.176	0.099
37.300	-11.658	0.099
37.400	-20.132	0.099
37.500	-14.344	0.099
37.600	-15.453	0.099
37.700	-11.960	0.099
37.800	0.482	0.099
37.900	-12.829	0.099
38.000	-14.817	0.099
38.100	-21.183	0.099
38.200	-9.330	0.099
38.300	-7.307	0.099
38.400	-3.269	0.099
38.500	-22.024	0.099
38.600	-22.947	0.099
38.700	-16.890	0.099
38.800	-10.527	0.099
38.900	-20.204	0.099
39.000	-11.364	0.099
39.100	-0.760	0.099
39.200	-15.574	0.099
39.300	-17.578	0.099
39.400	-27.781	0.099
39.500	-11.772	0.099
39.600	-9.762	0.099
39.700	-14.233	0.099
39.800	-11.420	0.099
39.900	-7.750	0.099
40.000	-5.086	0.099
40.100	-14.990	0.099
40.200	-14.864	0.099
40.300	-7.470	0.099
40.400	-10.533	0.099
40.500	-18.838	0.099
40.600	-6.616	0.099
40.700	-4.216	0.099
40.800	-9.022	0.099
40.900	-9.636	0.099
41.000	-17.733	0.099
41.100	-13.834	0.099
41.200	-9.914	0.099
41.300	-11.180	0.100
41.400	-11.832	0.100
41.500	-15.260	0.100
41.600	-14.459	0.100
41.700	-12.184	0.100
41.800	-12.758	0.100
41.900	-12.599	0.100
42.000	-12.348	0.100
42.100	-8.204	0.100
42.200	-10.874	0.100
42.300	-28.244	0.100
42.400	-19.919	0.100
42.500	-11.755	0.100
42.600	-9.368	0.100
42.700	-5.763	0.100
42.800	-2.454	0.100
42.900	-9.745	0.100
43.000	-16.976	0.100
43.100	-13.312	0.100
43.200	-3.976	0.100
43.300	-5.977	0.100
43.400	-14.507	0.100
43.500	-14.863	0.100
43.600	-11.465	0.100
43.700	0.276	0.100
43.800	-7.021	0.100
43.900	-15.229	0.100
44.000	-7.866	0.100
44.100	-7.868	0.100
44.200	-7.390	0.100
44.300	-7.698	0.100
44.400	-5.823	0.100
44.500	-9.307	0.100
44.600	-21.820	0.100
44.700	-5.975	0.100
44.800	-15.261	0.100
44.900	-9.527	0.100
45.000	-10.897	0.100
45.100	-8.107	0.100
45.200	-11.255	0.100
45.300	-15.019	0.100
45.400	-17.232	0.100
45.500	-7.164	0.100
45.600	-11.904	0.100
45.700	-13.316	0.100
45.800	-14.869	0.100
45.900	-7.588	0.100
46.000	-12.477	0.100
46.100	-13.434	0.100
46.200	-12.388	0.100
46.300	-13.354	0.100
46.400	-1.872	0.100
46.500	-6.109	0.100
46.600	-2.075	0.100
46.700	-12.488	0.100
46.800	-7.432	0.100
46.900	-7.883	0.100
47.000	-4.709	0.100
47.100	-15.098	0.100
47.200	-23.601	0.100
47.300	-4.826	0.100
47.400	-7.048	0.100
47.500	-8.828	0.100
47.600	-7.109	0.100
47.700	3.117	0.100
47.800	-2.662	0.100
47.900	-10.735	0.100
48.000	-13.682	0.100
48.100	-6.985	0.100
48.200	-13.850	0.100
48.300	-7.390	0.100
48.400	-9.185	0.100
48.500	-3.408	0.100
48.600	-8.093	0.100
48.700	-6.759	0.100
48.800	-13.722	0.100
48.900	-10.761	0.100
49.000	-5.476	0.100
49.100	-12.391	0.100
49.200	-8.008	0.100
49.300	-9.391	0.100
49.400	-2.389	0.100
49.500	-15.226	0.100
49.600	-6.851	0.100
49.700	-6.905	0.100
49.800	-16.334	0.100
49.900	-11.567	0.100
50.000	-11.113	0.100
50.100	-13.761	0.100
50.200	-16.591	0.100
50.300	-7.011	0.100
50.400	-3.716	0.100
50.500	-7.558	0.100
50.600	4.282	0.100
50.700	-10.847	0.100
50.800	-10.429	0.100
50.900	-10.351	0.100
51.000	-15.006	0.100
51.100	-2.025	0.100
51.200	4.430	0.100
51.300	-0.040	0.100
51.400	-2.325	0.100
51.500	-3.665	0.100
51.600	-13.255	0.100
51.700	-8.220	0.100
51.800	-7.010	0.100
51.900	-10.462	0.100
52.000	-5.278	0.100
52.100	-3.822	0.100
52.200	-23.854	0.100
52.300	-0.697	0.100
52.400	-6.289	0.100
52.500	-8.540	0.100
52.600	-12.795	0.100
52.700	-1.101	0.100
52.800	-16.150	0.100
52.900	-14.735	0.100
53.000	-9.273	0.100
53.100	-3.341	0.100
53.200	2.104	0.100
53.300	-8.136	0.100
53.400	-6.591	0.100
53.500	-11.213	0.100
53.600	-10.930	0.100
53.700	-1.646	0.100
53.800	-0.709	0.100
53.900	-7.616	0.100
54.000	-1.956	0.100
54.100	-13.444	0.100
54.200	-10.894	0.100
54.300	4.271	0.100
54.400	-19.083	0.100
54.500	-5.942	0.100
54.600	-6.434	0.100
54.700	-10.856	0.100
54.800	6.000	0.100
54.900	1.557	0.100
55.000	-8.001	0.100
55.100	-0.464	0.100
55.200	0.150	0.100
55.300	-7.470	0.100
55.400	-2.637	0.100
55.500	-3.541	0.100
55.600	-22.220	0.100
55.700	9.861	0.100
55.800	-2.949	0.100
55.900	3.572	0.100
56.000	2.183	0.100
56.100	0.445	0.100
56.200	-9.360	0.100
56.300	-11.743	0.100
56.400	-15.229	0.100
56.500	-7.202	0.100
56.600	1.101	0.100
56.700	4.223	0.100
56.800	-5.842	0.100
56.900	2.597	0.100
57.000	-11.915	0.100
57.100	-8.675	0.100
57.200	-10.091	0.100
57.300	-12.887	0.100
57.400	-7.794	0.100
57.500	4.425	0.100
57.600	-1.780	0.100
57.700	-11.314	0.100
57.800	-9.703	0.100
57.900	-9.021	0.100
58.000	-3.564	0.100
58.100	-10.030	0.100
58.200	-0.055	0.100
58.300	-0.028	0.100
58.400	-3.035	0.100
58.500	-1.980	0.100
58.600	-6.135	0.100
58.700	-4.051	0.100
58.800	-15.247	0.100
58.900	-14.039	0.100
59.000	1.857	0.100
59.100	-2.385	0.100
59.200	-9.176	0.100
59.300	1.024	0.100
59.400	-3.219	0.100
59.500	0.991	0.100
59.600	1.682	0.100
59.700	-3.906	0.100
59.800	-14.977	0.100
59.900	-2.780	0.100
60.000	-19.518	0.100
60.100	-8.501	0.100
60.200	-2.420	0.100
60.300	-0.980	0.100
60.400	-6.115	0.100
60.500	-11.123	0.100
60.600	-3.716	0.100
60.700	-8.318	0.100
60.800	-1.209	0.100
60.900	-5.997	0.100
61.000	4.478	0.100
61.100	-9.791	0.100
61.200	-6.195	0.100
61.300	-6.282	0.100
61.400	-6.310	0.100
61.500	2.842	0.100
61.600	-11.003	0.100
61.700	7.629	0.100
61.800	2.065	0.100
61.900	-7.875	0.100
62.000	-5.951	0.100
62.100	-5.160	0.100
62.200	2.071	0.100
62.300	-5.383	0.100
62.400	-9.298	0.100
62.500	-2.530	0.100
62.600	-2.904	0.100
62.700	-5.815	0.100
62.800	1.986	0.100
62.900	-2.018	0.100
63.000	-4.911	0.100
63.100	-6.362	0.100
63.200	0.812	0.100
63.300	-4.162	0.100
63.400	-0.165	0.100
63.500	-4.802	0.100
63.600	-7.921	0.100
63.700	-12.155	0.100
63.800	-8.081	0.100
63.900	-3.801	0.100
64.000	-13.968	0.100
64.100	-9.082	0.100
64.200	-5.135	0.100
64.300	1.292	0.100
64.400	4.511	0.100
64.500	-1.410	0.100
64.600	-4.516	0.100
64.700	-11.929	0.100
64.800	-8.520	0.100
64.900	-4.276	0.100
65.000	-9.438	0.100
65.100	-1.514	0.100
65.200	-8.978	0.100
65.300	0.093	0.100
65.400	5.419	0.100
65.500	-11.753	0.100
65.600	-3.479	0.100
65.700	-8.934	0.100
65.800	-5.621	0.100
65.900	7.185	0.100
66.000	-6.787	0.100
66.100	1.149	0.100
66.200	-8.713	0.100
66.300	-16.900	0.100
66.400	5.005	0.100
66.500	-0.081	0.100
66.600	-4.474	0.100
66.700	-6.283	0.100
66.800	0.741	0.100
66.900	-3.636	0.100
67.000	0.599	0.100
67.100	1.374	0.100
67.200	-7.214	0.100
67.300	-6.294	0.100
67.400	-2.191	0.100
67.500	-5.027	0.100
67.600	-4.053	0.100
67.700	-2.175	0.100
67.800	-4.546	0.100
67.900	-4.975	0.100
68.000	-5.389	0.100
68.100	-1.221	0.100
68.200	-2.479	0.100
68.300	4.844	0.100
68.400	-0.836	0.100
68.500	-9.354	0.100
68.600	-2.075	0.100
68.700	-7.511	0.100
68.800	-4.773	0.100
68.900	-0.926	0.100
69.000	-3.155	0.100
69.100	-14.809	0.100
69.200	4.293	0.100
69.300	-0.180	0.100
69.400	-4.727	0.100
69.500	0.157	0.100
69.600	-3.629	0.100
69.700	-3.034	0.100
69.800	-4.302	0.100
69.900	-4.549	0.100
70.000	-2.024	0.100
70.100	-10.596	0.100
70.200	-5.883	0.100
70.300	-3.363	0.100
70.400	4.338	0.100
70.500	-9.941	0.100
70.600	-1.990	0.100
70.700	-4.440	0.100
70.800	1.960	0.100
70.900	9.767	0.100
71.000	-7.701	0.100
71.100	7.946	0.100
71.200	4.313	0.100
71.300	-3.769	0.100
71.400	-2.859	0.100
71.500	2.498	0.100
71.600	2.499	0.100
71.700	-4.148	0.100
71.800	-3.277	0.100
71.900	-0.003	0.100
72.000	-2.393	0.100
72.100	-0.008	0.100
72.200	-3.401	0.100
72.300	2.846	0.100
72.400	-3.039	0.100
72.500	-12.880	0.100
72.600	-9.335	0.100
72.700	-4.488	0.100
72.800	17.566	0.100
72.900	-2.949	0.100
73.000	2.695	0.100
73.100	-12.163	0.100
73.200	-6.352	0.100
73.300	1.818	0.100
73.400	4.178	0.100
73.500	-0.382	0.100
73.600	4.091	0.100
73.700	-7.868	0.100
73.800	-2.159	0.100
73.900	-5.962	0.100
74.000	-11.360	0.100
74.100	-0.489	0.100
74.200	-8.157	0.100
74.300	-1.881	0.100
74.400	-7.441	0.100
74.500	-13.106	0.100
74.600	3.817	0.100
74.700	-1.117	0.100
74.800	-4.481	0.100
74.900	-2.205	0.100
75.000	-8.451	0.100
75.100	-1.478	0.100
75.200	3.979	0.100
75.300	7.813	0.100
75.400	1.142	0.100
75.500	-9.937	0.100
75.600	4.858	0.100
75.700	-4.375	0.100
75.800	-3.214	0.100
75.900	-4.285	0.100
76.000	5.284	0.100
76.100	-7.377	0.100
76.200	-6.278	0.100
76.300	7.824	0.100
76.400	-7.710	0.100
76.500	-3.121	0.100
76.600	-1.323	0.100
76.700	7.492	0.100
76.800	3.673	0.100
76.900	-3.232	0.100
77.000	-2.341	0.100
77.100	-1.643	0.100
77.200	3.794	0.100
77.300	0.486	0.100
77.400	2.587	0.100
77.500	3.576	0.100
77.600	7.816	0.100
77.700	3.261	0.100
77.800	-1.610	0.100
77.900	-3.321	0.100
78.000	0.605	0.100
78.100	2.144	0.100
78.200	-3.096	0.100
78.300	5.497	0.100
78.400	-3.880	0.100
78.500	3.616	0.100
78.600	6.509	0.100
78.700	-5.918	0.100
78.800	2.686	0.100
78.900	2.141	0.100
79.000	1.644	0.100
79.100	-6.753	0.100
79.200	8.159	0.100
79.300	6.451	0.100
79.400	4.203	0.100
79.500	-7.986	0.100
79.600	4.229	0.100
79.700	-13.787	0.100
79.800	5.975	0.100
79.900	4.222	0.100
80.000	-4.382	0.100
80.100	-6.470	0.100
80.200	-5.888	0.100
80.300	2.554	0.100
80.400	10.292	0.100
80.500	1.144	0.100
80.600	-6.145	0.100
80.700	2.418	0.100
80.800	-11.615	0.100
80.900	5.058	0.100
81.000	1.189	0.100
81.100	-7.825	0.100
81.200	-0.784	0.100
81.300	0.507	0.100
81.400	-3.903	0.100
81.500	11.288	0.100
81.600	-0.424	0.100
81.700	2.551	0.100
81.800	14.050	0.100
81.900	6.440	0.100
82.000	-0.468	0.100
82.100	1.764	0.100
82.200	1.843	0.100
82.300	-1.809	0.100
82.400	8.347	0.100
82.500	-2.748	0.100
82.600	-5.725	0.100
82.700	-3.301	0.100
82.800	-0.862	0.100
82.900	5.394	0.100
83.000	-6.734	0.100
83.100	5.845	0.100
83.200	3.388	0.100
83.300	-1.924	0.100
83.400	7.050	0.100
83.500	0.828	0.100
83.600	3.206	0.100
83.700	-2.121	0.100
83.800	1.778	0.100
83.900	11.330	0.100
84.000	5.753	0.100
84.100	6.769	0.100
84.200	-1.031	0.100
84.300	-0.816	0.100
84.400	-13.142	0.100
84.500	1.350	0.100
84.600	2.558	0.100
84.700	-3.051	0.100
84.800	0.265	0.100
84.900	10.490	0.100
85.000	-7.300	0.100
85.100	-3.789	0.100
85.200	8.592	0.100
85.300	7.075	0.100
85.400	4.942	0.100
85.500	-2.069	0.100
85.600	-4.150	0.100
85.700	-2.221	0.100
85.800	1.772	0.100
85.900	-0.058	0.100
86.000	10.424	0.100
86.100	3.127	0.100
86.200	-1.422	0.100
86.300	-2.015	0.100
86.400	-0.123	0.100
86.500	8.942	0.100
86.600	7.800	0.100
86.700	1.477	0.100
86.800	6.355	0.100
86.900	2.217	0.100
87.000	0.109	0.100
87.100	9.068	0.100
87.200	3.557	0.100
87.300	-11.701	0.100
87.400	-7.955	0.100
87.500	-6.517	0.100
87.600	1.814	0.100
87.700	16.898	0.100
87.800	9.396	0.100
87.900	1.015	0.100
88.000	-0.386	0.100
88.100	9.149	0.100
88.200	1.052	0.100
88.300	6.209	0.100
88.400	5.211	0.100
88.500	-7.519	0.100
88.600	4.350	0.100
88.700	0.318	0.100
88.800	-6.451	0.100
88.900	9.730	0.100
89.000	10.089	0.100
89.100	0.551	0.100
89.200	3.353	0.100
89.300	-11.516	0.100
89.400	5.846	0.100
89.500	6.250	0.100
89.600	4.839	0.100
89.700	-1.346	0.100
89.800	-3.357	0.100
89.900	1.020	0.100
90.000	3.221	0.100
90.100	6.406	0.100
90.200	1.730	0.100
90.300	2.475	0.100
90.400	-0.851	0.100
90.500	-0.997	0.100
90.600	2.925	0.100
90.700	5.224	0.100
90.800	-5.351	0.100
90.900	5.469	0.100
91.000	8.197	0.100
91.100	-2.290	0.100
91.200	0.926	0.100
91.300	-2.439	0.100
91.400	4.559	0.100
91.500	10.884	0.100
91.600	-5.212	0.100
91.700	-1.735	0.100
91.800	12.413	0.100
91.900	9.733	0.100
92.000	-0.824	0.100
92.100	2.504	0.100
92.200	-2.100	0.100
92.300	-6.943	0.100
92.400	-0.881	0.100
92.500	-1.944	0.100
92.600	2.322	0.100
92.700	3.519	0.100
92.800	-2.154	0.100
92.900	-4.856	0.100
93.000	2.373	0.100
93.100	-1.512	0.100
93.200	8.655	0.100
93.300	-6.678	0.100
93.400	-2.534	0.100
93.500	2.068	0.100
93.600	1.038	0.100
93.700	-4.129	0.100
93.800	-0.259	0.100
93.900	-1.963	0.100
94.000	-2.555	0.100
94.100	-6.882	0.100
94.200	-2.102	0.100
94.300	-9.590	0.100
94.400	-1.828	0.100
94.500	1.522	0.100
94.600	-9.761	0.100
94.700	-6.805	0.100
94.800	-3.478	0.100
94.900	-7.746	0.100
95.000	5.184	0.100
95.100	-0.468	0.100
95.200	-10.437	0.100
95.300	-5.328	0.100
95.400	-4.950	0.100
95.500	-10.995	0.100
95.600	-4.998	0.100
95.700	-4.342	0.100
95.800	-0.585	0.100
95.900	2.808	0.100
96.000	1.684	0.100
96.100	-1.842	0.100
96.200	-4.811	0.100
96.300	-10.234	0.100
96.400	-14.357	0.100
96.500	-17.248	0.100
96.600	3.593	0.100
96.700	-8.865	0.100
96.800	-9.385	0.100
96.900	7.297	0.100
97.000	-8.408	0.100
97.100	-4.925	0.100
97.200	-0.840	0.100
97.300	11.040	0.100
97.400	-0.417	0.100
97.500	-8.007	0.100
97.600	-1.648	0.100
97.700	-12.601	0.100
97.800	-15.551	0.100
97.900	-4.617	0.100
98.000	-0.792	0.100
98.100	-1.689	0.100
98.200	-10.723	0.100
98.300	-13.680	0.100
98.400	-3.274	0.100
98.500	2.049	0.100
98.600	1.844	0.100
98.700	-5.355	0.100
98.800	-9.552	0.100
98.900	-3.725	0.100
99.000	-13.423	0.100
99.100	-7.445	0.100
99.200	-0.903	0.100
99.300	-12.360	0.100
99.400	-2.060	0.100
99.500	-7.011	0.100
99.600	-10.647	0.100
99.700	-11.268	0.100
99.800	-5.626	0.100
99.900	-4.161	0.100
100.000	-1.165	0.100
100.100	-0.645	0.100
100.200	-9.663	0.100
100.300	-9.647	0.100
100.400	2.513	0.100
100.500	0.315	0.100
100.600	-6.515	0.100
100.700	-1.872	0.100
100.800	-13.161	0.100
100.900	1.297	0.100
101.000	-0.496	0.100
101.100	-15.623	0.100
101.200	2.473	0.100
101.300	-11.791	0.100
101.400	-7.602	0.100
101.500	-0.069	0.100
101.600	0.997	0.100
101.700	-10.661	0.100
101.800	-9.802	0.100
101.900	-7.028	0.100
102.000	-1.215	0.100
102.100	-4.465	0.100
102.200	-7.241	0.100
102.300	-7.392	0.100
102.400	-14.915	0.100
102.500	5.102	0.100
102.600	-13.791	0.100
102.700	-14.835	0.100
102.800	-8.280	0.100
102.900	-11.492	0.100
103.000	-8.005	0.100
103.100	-7.719	0.100
103.200	-1.071	0.100
103.300	-4.448	0.100
103.400	-8.409	0.100
103.500	0.817	0.100
103.600	-9.281	0.100
103.700	-5.089	0.100
103.800	-8.462	0.100
103.900	-2.426	0.100
104.000	4.486	0.100
104.100	-8.689	0.100
104.200	-1.011	0.100
104.300	-1.410	0.100
104.400	-10.056	0.100
104.500	-12.936	0.100
104.600	-9.966	0.100
104.700	-8.835	0.100
104.800	-5.755	0.100
104.900	-3.912	0.100
105.000	-6.112	0.100
105.100	-8.021	0.100
105.200	-6.250	0.100
105.300	-16.133	0.100
105.400	-10.059	0.100
105.500	-4.964	0.100
105.600	-0.127	0.100
105.700	-7.123	0.100
105.800	-7.906	0.100
105.900	-13.472	0.100
106.000	-10.549	0.100
106.100	-2.044	0.100
106.200	4.879	0.100
106.300	-4.425	0.100
106.400	-5.738	0.100
106.500	0.104	0.100
106.600	-4.746	0.100
106.700	-1.052	0.100
106.800	-6.211	0.100
106.900	0.660	0.100
107.000	-8.736	0.100
107.100	-0.193	0.100
107.200	-4.653	0.100
107.300	-16.193	0.100
107.400	-12.115	0.100
107.500	-1.509	0.100
107.600	-2.819	0.100
107.700	-11.200	0.100
107.800	-8.960	0.100
107.900	-7.116	0.100
108.000	-13.671	0.100
108.100	-5.025	0.100
108.200	-3.920	0.100
108.300	-13.175	0.100
108.400	-13.278	0.100
108.500	-4.486	0.100
108.600	-12.595	0.100
108.700	-12.122	0.100
108.800	-11.046	0.100
108.900	-2.177	0.100
109.000	-3.632	0.100
109.100	-2.024	0.100
109.200	-7.892	0.100
109.300	-10.212	0.100
109.400	-17.847	0.100
109.500	-17.238	0.100
109.600	-3.198	0.100
109.700	-4.254	0.100
109.800	-5.473	0.100
109.900	-17.933	0.100
110.000	-5.286	0.100
110.100	-16.023	0.100
110.200	-17.814	0.100
110.300	-11.086	0.100
110.400	-7.348	0.100
110.500	-4.216	0.100
110.600	0.080	0.100
110.700	-12.167	0.100
110.800	-6.524	0.100
110.900	0.471	0.100
111.000	-10.870	0.100
111.100	-8.889	0.100
111.200	-5.789	0.100
111.300	-8.417	0.100
111.400	-19.746	0.100
111.500	-11.236	0.100
111.600	-4.468	0.100
111.700	-6.396	0.100
111.800	-19.449	0.100
111.900	-10.651	0.100
112.000	4.567	0.100
112.100	3.027	0.100
112.200	1.388	0.100
112.300	-10.471	0.100
112.400	-11.345	0.100
112.500	-17.259	0.100
112.600	-7.970	0.100
112.700	-14.709	0.100
112.800	-6.708	0.100
112.900	-13.148	0.100
113.000	-5.300	0.100
113.100	-10.836	0.100
113.200	-4.765	0.100
113.300	-12.227	0.100
113.400	-11.131	0.100
113.500	-1.823	0.100
113.600	-9.897	0.100
113.700	-12.442	0.100
113.800	-12.716	0.100
113.900	-6.946	0.100
114.000	-1.762	0.100
114.100	-22.367	0.100
114.200	-8.720	0.100
114.300	-9.579	0.100
114.400	1.274	0.100
114.500	-11.535	0.100
114.600	-21.400	0.100
114.700	-10.758	0.100
114.800	-4.195	0.100
114.900	-7.124	0.100
115.000	2.079	0.100
115.100	-12.432	0.100
115.200	-3.930	0.100
115.300	-0.840	0.100
115.400	-9.263	0.100
115.500	-11.514	0.100
115.600	-12.470	0.100
115.700	-12.362	0.100
115.800	-8.450	0.100
115.900	-10.924	0.100
116.000	-7.303	0.100
116.100	-15.185	0.100
116.200	-14.188	0.100
116.300	-16.188	0.100
116.400	-5.780	0.100
116.500	-2.405	0.100
116.600	-12.072	0.100
116.700	-22.196	0.100
116.800	-14.096	0.100
116.900	-10.407	0.100
117.000	-22.379	0.100
117.100	-7.887	0.100
117.200	-2.674	0.100
117.300	2.292	0.100
117.400	-7.257	0.100
117.500	-6.326	0.100
117.600	-9.847	0.100
117.700	-10.965	0.100
117.800	-5.664	0.100
117.900	-7.852	0.100
118.000	-10.868	0.100
118.100	-11.921	0.100
118.200	-7.217	0.100
118.300	-6.499	0.100
118.400	-7.850	0.100
118.500	-7.216	0.100
118.600	-8.470	0.100
118.700	-21.366	0.100
118.800	-10.695	0.100
118.900	-10.205	0.100
119.000	-9.725	0.100
119.100	-18.856	0.100
119.200	-7.216	0.100
119.300	-13.220	0.100
119.400	-11.350	0.100
119.500	-9.355	0.100
119.600	-0.358	0.100
119.700	-6.263	0.100
119.800	-5.536	0.100
119.900	-13.666	0.100
120.000	-12.224	0.100
120.100	-17.334	0.100
120.200	-6.923	0.100
120.300	-11.476	0.100
120.400	-17.645	0.100
120.500	-8.325	0.100
120.600	-11.664	0.100
120.700	-9.892	0.100
120.800	-13.037	0.100
120.900	-16.194	0.100
121.000	-10.809	0.100
121.100	-14.205	0.100
121.200	-12.648	0.100
121.300	-17.323	0.100
121.400	-3.753	0.100
121.500	-5.701	0.100
121.600	-5.643	0.100
121.700	-12.920	0.100
121.800	-7.551	0.100
121.900	-13.173	0.100
122.000	-15.179	0.100
122.100	-17.534	0.100
122.200	-9.720	0.100
122.300	-11.896	0.100
122.400	-20.027	0.100
122.500	-16.873	0.100
122.600	-18.057	0.100
122.700	-13.224	0.100
122.800	-20.314	0.100
122.900	-12.337	0.100
123.000	-6.605	0.100
123.100	-13.154	0.100
123.200	-14.565	0.100
123.300	-12.815	0.100
123.400	-14.367	0.100
123.500	-26.554	0.100
123.600	-10.699	0.100
123.700	-5.850	0.100
123.800	-13.171	0.100
123.900	-13.779	0.100
124.000	-9.465	0.100
124.100	-15.347	0.100
124.200	-9.845	0.100
124.300	-3.713	0.100
124.400	-5.007	0.100
124.500	-16.754	0.100
124.600	-10.259	0.100
124.700	-12.794	0.100
124.800	-8.799	0.100
124.900	-14.636	0.100
125.000	-20.821	0.100
125.100	-21.093	0.100
125.200	-4.116	0.100
125.300	-11.318	0.100
125.400	-7.926	0.100
125.500	-4.251	0.100
125.600	-12.773	0.100
125.700	-10.944	0.100
125.800	-18.215	0.100
125.900	-14.717	0.100
126.000	-12.348	0.100
126.100	-18.651	0.100
126.200	-20.304	0.100
126.300	-17.756	0.100
126.400	-10.569	0.100
126.500	-8.217	0.100
126.600	1.101	0.100
126.700	-5.423	0.100
126.800	-13.079	0.100
126.900	-16.109	0.100
127.000	-11.464	0.100
127.100	-13.188	0.100
127.200	-13.783	0.100
127.300	-21.743	0.100
127.400	-19.476	0.100
127.500	-24.763	0.100
127.600	-8.592	0.100
127.700	-19.502	0.100
127.800	-8.963	0.100
127.900	-14.986	0.100
128.000	-2.983	0.100
128.100	-6.965	0.100
128.200	-13.207	0.100
128.300	-8.467	0.100
128.400	-2.643	0.100
128.500	-2.871	0.100
128.600	-15.138	0.100
128.700	-13.656	0.100
128.800	-24.795	0.100
128.900	-15.894	0.100
129.000	-12.123	0.100
129.100	-8.412	0.100
129.200	-10.967	0.100
129.300	-20.122	0.100
129.400	-9.866	0.100
129.500	-10.345	0.100
129.600	-8.714	0.100
129.700	-3.427	0.100
129.800	-15.348	0.100
129.900	-18.498	0.100
130.000	-11.531	0.100
130.100	-18.306	0.100
130.200	-16.578	0.100
130.300	-24.418	0.100
130.400	-18.548	0.100
130.500	-20.582	0.100
130.600	-18.289	0.100
130.700	-18.221	0.100
130.800	-6.223	0.100
130.900	-13.020	0.100
131.000	-18.592	0.100
131.100	-12.064	0.100
131.200	-20.120	0.100
131.300	-9.525	0.100
131.400	-9.220	0.100
131.500	-3.011	0.100
131.600	-3.818	0.100
131.700	-13.559	0.100
131.800	-22.687	0.100
131.900	-16.968	0.100
132.000	-12.839	0.100
132.100	-21.889	0.100
132.200	-11.504	0.100
132.300	-15.845	0.100
132.400	-10.945	0.100
132.500	-16.770	0.100
132.600	-13.206	0.100
132.700	-15.697	0.100
132.800	-11.409	0.100
132.900	-11.624	0.100
133.000	-15.600	0.100
133.100	-8.295	0.100
133.200	-11.496	0.100
133.300	-20.061	0.100
133.400	-16.582	0.100
133.500	-13.676	0.100
133.600	-1.784	0.100
133.700	-13.058	0.100
133.800	-26.140	0.100
133.900	-14.906	0.100
134.000	-16.862	0.100
134.100	-9.363	0.100
134.200	-14.958	0.100
134.300	-13.960	0.100
134.400	-7.194	0.100
134.500	-28.970	0.100
134.600	-16.988	0.100
134.700	-4.299	0.100
134.800	-4.226	0.100
134.900	-8.653	0.100
135.000	-11.114	0.100
135.100	-17.803	0.100
135.200	-15.457	0.100
135.300	-16.914	0.100
135.400	-16.696	0.100
135.500	-10.796	0.100
135.600	-12.572	0.100
135.700	-18.097	0.100
135.800	-23.235	0.100
135.900	-10.357	0.100
136.000	-12.197	0.100
136.100	-14.880	0.100
136.200	-21.385	0.100
136.300	-14.962	0.100
136.400	-16.702	0.100
136.500	-12.421	0.100
136.600	-11.669	0.100
136.700	-9.660	0.100
136.800	-8.890	0.100
136.900	-13.959	0.100
137.000	-16.006	0.100
137.100	-13.722	0.100
137.200	-11.060	0.100
137.300	-16.433	0.100
137.400	-14.018	0.100
137.500	-9.250	0.100
137.600	-11.741	0.100
137.700	-16.749	0.100
137.800	-23.918	0.100
137.900	-14.455	0.100
138.000	-10.139	0.100
138.100	-16.528	0.100
138.200	-6.641	0.100
138.300	-8.458	0.100
138.400	-19.022	0.100
138.500	-21.054	0.100
138.600	-10.673	0.100
138.700	-18.087	0.100
138.800	-19.959	0.100
138.900	-15.891	0.100
139.000	-5.347	0.100
139.100	-17.333	0.100
139.200	-15.078	0.100
139.300	-12.359	0.100
139.400	-13.283	0.100
139.500	-15.632	0.100
139.600	-19.060	0.100
139.700	-13.290	0.100
139.800	-15.911	0.100
139.900	-17.376	0.100
140.000	-14.706	0.100
140.100	-9.330	0.100
140.200	-18.131	0.100
140.300	-14.959	0.100
140.400	-4.811	0.100
140.500	-17.994	0.100
140.600	-13.971	0.100
140.700	-8.172	0.100
140.800	-10.876	0.100
140.900	-12.863	0.100
141.000	-14.905	0.100
141.100	-17.067	0.100
141.200	-18.709	0.100
141.300	-10.771	0.100
141.400	-12.339	0.100
141.500	-11.562	0.100
141.600	-10.641	0.100
141.700	-17.828	0.100
141.800	-19.980	0.100
141.900	-10.203	0.100
142.000	-22.726	0.100
142.100	-15.334	0.100
142.200	-15.609	0.100
142.300	-20.919	0.100
142.400	-7.034	0.100
142.500	-10.146	0.100
142.600	-15.597	0.100
142.700	-14.090	0.100
142.800	-17.935	0.100
142.900	-14.951	0.100
143.000	-9.303	0.100
143.100	-12.275	0.100
143.200	-11.874	0.100
143.300	-16.142	0.100
143.400	-16.352	0.100
143.500	-10.501	0.100
143.600	-15.701	0.100
143.700	-32.916	0.100
143.800	-13.360	0.100
143.900	-8.116	0.100
144.000	-8.348	0.100
144.100	-8.148	0.100
144.200	-16.299	0.100
144.300	-19.760	0.100
144.400	-16.617	0.100
144.500	-5.435	0.100
144.600	-14.367	0.100
144.700	-21.405	0.100
144.800	-18.230	0.100
144.900	0.622	0.100
145.000	-14.324	0.100
145.100	-13.461	0.100
145.200	-8.676	0.100
145.300	-6.438	0.100
145.400	-14.151	0.100
145.500	-10.011	0.100
145.600	-14.389	0.100
145.700	-17.142	0.100
145.800	-20.090	0.100
145.900	-15.425	0.100
146.000	-16.250	0.100
146.100	-9.356	0.100
146.200	-9.934	0.100
146.300	-0.567	0.100
146.400	-1.245	0.100
146.500	-10.300	0.100
146.600	-13.545	0.100
146.700	-15.878	0.100
146.800	-23.787	0.100
146.900	-7.992	0.100
147.000	-6.084	0.100
147.100	-9.880	0.100
147.200	-2.846	0.100
147.300	-13.058	0.100
147.400	-15.824	0.100
147.500	-17.818	0.100
147.600	-25.028	0.100
147.700	-16.058	0.100
147.800	-15.314	0.100
147.900	-4.916	0.100
148.000	-16.024	0.100
148.100	-22.498	0.100
148.200	-19.998	0.100
148.300	-12.938	0.100
148.400	-8.118	0.100
148.500	-15.097	0.100
148.600	-21.688	0.100
148.700	-23.519	0.100
148.800	-9.948	0.100
148.900	-13.719	0.100
149.000	-9.964	0.100
149.100	-7.655	0.100
149.200	-14.306	0.100
149.300	-20.889	0.100
149.400	-18.481	0.100
149.500	-10.883	0.100
149.600	-12.476	0.100
149.700	-24.161	0.100
149.800	-11.627	0.100
149.900	-7.732	0.100
150.000	-8.367	0.100
150.100	-13.480	0.100
150.200	-9.670	0.100
150.300	-11.644	0.100
150.400	-17.978	0.100
150.500	-12.187	0.100
150.600	-18.620	0.100
150.700	-4.588	0.100
150.800	-16.734	0.100
150.900	-6.821	0.100
151.000	-7.224	0.100
151.100	-16.268	0.100
151.200	-11.703	0.100
151.300	-17.365	0.100
151.400	-5.333	0.100
151.500	-16.911	0.100
151.600	-17.593	0.100
151.700	-17.038	0.100
151.800	-17.486	0.100
151.900	-10.084	0.100
152.000	-7.693	0.100
152.100	-26.512	0.100
152.200	-19.619	0.100
152.300	-7.595	0.100
152.400	-13.446	0.100
152.500	-5.555	0.100
152.600	-18.910	0.100
152.700	-24.755	0.100
152.800	-11.561	0.100
152.900	2.853	0.100
153.000	-18.161	0.100
153.100	-9.810	0.100
153.200	-14.281	0.100
153.300	-23.062	0.100
153.400	-14.384	0.100
153.500	-10.314	0.100
153.600	-0.996	0.100
153.700	-7.402	0.100
153.800	-7.428	0.100
153.900	-13.290	0.100
154.000	-18.896	0.100
154.100	-30.506	0.100
154.200	-16.968	0.100
154.300	-11.746	0.100
154.400	-4.995	0.100
154.500	-13.291	0.100
154.600	-9.796	0.100
154.700	-7.163	0.100
154.800	-12.837	0.100
154.900	-8.857	0.100
155.000	-8.316	0.100
155.100	-16.662	0.100
155.200	-9.041	0.100
155.300	-14.239	0.100
155.400	-19.094	0.100
155.500	-14.728	0.100
155.600	-9.034	0.100
155.700	-16.215	0.100
155.800	-9.646	0.100
155.900	-14.500	0.100
156.000	-8.353	0.100
156.100	-23.330	0.100
156.200	-14.232	0.100
156.300	-13.872	0.100
156.400	-16.484	0.100
156.500	-10.377	0.100
156.600	-13.370	0.100
156.700	-13.646	0.100
156.800	-24.583	0.100
156.900	-16.024	0.100
157.000	-9.856	0.100
157.100	-14.624	0.100
157.200	-17.337	0.100
157.300	-8.940	0.100
157.400	-13.408	0.100
157.500	-11.170	0.100
157.600	-15.348	0.100
157.700	-13.363	0.100
157.800	-15.745	0.100
157.900	-26.900	0.100
158.000	-11.859	0.100
158.100	-15.736	0.100
158.200	-12.684	0.100
158.300	-9.963	0.100
158.400	-15.208	0.100
158.500	-1.300	0.100
158.600	-13.105	0.100
158.700	-12.910	0.100
158.800	-16.192	0.100
158.900	-9.763	0.100
159.000	-17.715	0.100
159.100	-11.048	0.100
159.200	-17.870	0.100
159.300	-17.340	0.100
159.400	-21.778	0.100
159.500	-5.312	0.100
159.600	-16.241	0.100
159.700	-6.192	0.100
159.800	-11.445	0.100
159.900	-10.305	0.100
160.000	-16.716	0.100
160.100	-10.881	0.100
160.200	-8.737	0.100
160.300	-10.761	0.100
160.400	-12.542	0.100
160.500	-19.252	0.100
160.600	-19.986	0.100
160.700	-11.947	0.100
160.800	-10.277	0.100
160.900	-19.074	0.100
161.000	-16.129	0.100
161.100	-14.980	0.100
161.200	-24.128	0.100
161.300	-13.640	0.100
161.400	-15.054	0.100
161.500	-17.591	0.100
161.600	-21.332	0.100
161.700	-6.439	0.100
161.800	1.372	0.100
161.900	-8.725	0.100
162.000	-6.064	0.100
162.100	-12.356	0.100
162.200	-13.262	0.100
162.300	-13.585	0.100
162.400	-20.091	0.100
162.500	-5.450	0.100
162.600	-11.170	0.100
162.700	-7.870	0.100
162.800	-9.286	0.100
162.900	-13.209	0.100
163.000	-12.629	0.100
163.100	-16.539	0.100
163.200	-6.925	0.100
163.300	-11.363	0.100
163.400	-13.365	0.100
163.500	-7.660	0.100
163.600	-8.579	0.100
163.700	-16.370	0.100
163.800	-14.578	0.100
163.900	-20.088	0.100
164.000	-15.935	0.100
164.100	-13.703	0.100
164.200	-13.704	0.100
164.300	-10.483	0.100
164.400	-12.543	0.100
164.500	-15.829	0.100
164.600	-15.758	0.100
164.700	-16.711	0.100
164.800	-1.070	0.100
164.900	-9.189	0.100
165.000	-6.395	0.100
165.100	-9.078	0.100
165.200	-16.388	0.100
165.300	-21.861	0.100
165.400	-15.089	0.100
165.500	-13.775	0.100
165.600	-6.876	0.100
165.700	-13.794	0.100
165.800	-20.333	0.100
165.900	-17.711	0.100
166.000	-9.566	0.100
166.100	-11.963	0.100
166.200	-2.690	0.100
166.300	-6.755	0.100
166.400	-11.551	0.100
166.500	-9.786	0.100
166.600	-5.498	0.100
166.700	-10.764	0.100
166.800	-18.247	0.100
166.900	-12.671	0.100
167.000	-15.836	0.100
167.100	-13.795	0.100
167.200	-15.689	0.100
167.300	-7.453	0.100
167.400	-23.824	0.100
167.500	-12.162	0.100
167.600	-11.560	0.100
167.700	-5.470	0.100
167.800	-11.442	0.100
167.900	0.920	0.100
168.000	-5.440	0.100
168.100	-11.931	0.100
168.200	-16.316	0.100
168.300	-6.492	0.100
168.400	-17.314	0.100
168.500	-14.954	0.100
168.600	-17.578	0.100
168.700	-12.200	0.100
168.800	-13.221	0.100
168.900	-9.147	0.100
169.000	-0.992	0.100
169.100	-12.449	0.100
169.200	-19.170	0.100
169.300	-12.028	0.100
169.400	-11.529	0.100
169.500	-12.896	0.100
169.600	-14.031	0.100
169.700	-16.065	0.100
169.800	-17.694	0.100
169.900	-13.420	0.100
170.000	-14.085	0.100
170.100	-12.404	0.100
170.200	-15.168	0.100
170.300	-12.133	0.100
170.400	-13.288	0.100
170.500	-17.043	0.100
170.600	-13.507	0.100
170.700	-21.116	0.100
170.800	-18.154	0.100
170.900	-10.991	0.100
171.000	-12.715	0.100
171.100	-10.866	0.100
171.200	-11.811	0.100
171.300	-20.546	0.100
171.400	-19.154	0.100
171.500	-13.301	0.100
171.600	-12.293	0.100
171.700	-5.237	0.100
171.800	-19.745	0.100
171.900	-2.971	0.100
172.000	-4.590	0.100
172.100	-7.803	0.100
172.200	-11.226	0.100
172.300	-18.842	0.100
172.400	-2.406	0.100
172.500	-14.214	0.100
172.600	-11.354	0.100
172.700	-17.607	0.100
172.800	-26.132	0.100
172.900	-9.999	0.100
173.000	-11.398	0.100
173.100	-4.074	0.100
173.200	-11.819	0.100
173.300	-9.175	0.100
173.400	-10.537	0.100
173.500	-4.930	0.100
173.600	-7.619	0.100
173.700	-10.499	0.100
173.800	-17.590	0.100
173.900	-18.743	0.100
174.000	1.790	0.100
174.100	-10.234	0.100
174.200	-7.617	0.100
174.300	-8.994	0.100
174.400	-9.703	0.100
174.500	-15.433	0.100
174.600	-22.567	0.100
174.700	-15.997	0.100
174.800	-5.610	0.100
174.900	-9.421	0.100
175.000	-13.361	0.100
175.100	-16.350	0.100
175.200	-18.153	0.100
175.300	-15.362	0.100
175.400	-17.669	0.100
175.500	-14.691	0.100
175.600	-15.237	0.100
175.700	-4.859	0.100
175.800	-15.489	0.100
175.900	-14.235	0.100
176.000	-12.780	0.100
176.100	-11.934	0.100
176.200	-10.923	0.100
176.300	-9.636	0.100
176.400	-14.033	0.100
176.500	-16.510	0.100
176.600	-14.555	0.100
176.700	-17.662	0.100
176.800	-27.424	0.100
176.900	-15.219	0.100
177.000	-0.333	0.100
177.100	-8.734	0.100
177.200	-5.620	0.100
177.300	-2.813	0.100
177.400	-9.507	0.100
177.500	-17.650	0.100
177.600	-12.382	0.100
177.700	-9.595	0.100
177.800	-16.965	0.100
177.900	-5.525	0.100
178.000	-3.616	0.100
178.100	-16.244	0.100
178.200	-9.260	0.100
178.300	-16.624	0.100
178.400	-14.224	0.100
178.500	-9.961	0.100
178.600	-14.170	0.100
178.700	-7.607	0.100
178.800	-13.355	0.100
178.900	-17.055	0.100
179.000	-13.756	0.100
179.100	-23.841	0.100
179.200	-4.491	0.100
179.300	-6.912	0.100
179.400	-5.831	0.100
179.500	-12.136	0.100
179.600	-10.686	0.100
179.700	-4.755	0.100
179.800	-5.160	0.100
179.900	-13.692	0.100
180.000	-20.392	0.100
180.100	-9.522	0.100
180.200	-14.888	0.100
180.300	-11.808	0.100
180.400	-15.348	0.100
180.500	-9.991	0.100
180.600	-6.924	0.100
180.700	-15.406	0.100
180.800	-13.965	0.100
180.900	-15.542	0.100
181.000	-11.737	0.100
181.100	-5.774	0.100
181.200	-13.496	0.100
181.300	-12.036	0.100
181.400	-16.613	0.100
181.500	6.679	0.100
181.600	-14.220	0.100
181.700	-0.854	0.100
181.800	-8.895	0.100
181.900	-6.390	0.100
182.000	-12.846	0.100
182.100	-7.717	0.100
182.200	-5.492	0.100
182.300	-10.563	0.100
182.400	-4.999	0.100
182.500	-13.261	0.100
182.600	-11.558	0.100
182.700	-12.493	0.100
182.800	-8.777	0.100
182.900	-1.275	0.100
183.000	-12.355	0.100
183.100	-11.746	0.100
183.200	-7.387	0.100
183.300	-8.673	0.100
183.400	-10.170	0.100
183.500	6.385	0.100
183.600	-0.465	0.100
183.700	-12.184	0.100
183.800	-9.172	0.100
183.900	-13.145	0.100
184.000	1.181	0.100
184.100	-7.587	0.100
184.200	0.863	0.100
184.300	1.817	0.100
184.400	2.484	0.100
184.500	-6.641	0.100
184.600	-8.302	0.100
184.700	-13.812	0.100
184.800	-2.409	0.100
184.900	-0.135	0.100
185.000	-5.144	0.100
185.100	-6.664	0.100
185.200	-6.797	0.100
185.300	-0.116	0.100
185.400	-6.272	0.100
185.500	-4.846	0.100
185.600	11.374	0.100
185.700	-2.597	0.100
185.800	-3.847	0.100
185.900	-4.287	0.100
186.000	-0.990	0.100
186.100	-7.234	0.100
186.200	-2.706	0.100
186.300	-5.011	0.100
186.400	-11.829	0.100
186.500	-4.386	0.100
186.600	-0.650	0.100
186.700	-8.446	0.100
186.800	-5.358	0.100
186.900	-3.815	0.100
187.000	-15.910	0.100
187.100	-14.193	0.100
187.200	-9.837	0.100
187.300	-4.748	0.100
187.400	7.940	0.100
187.500	-4.476	0.100
187.600	-9.429	0.100
187.700	-7.440	0.100
187.800	-13.229	0.100
187.900	-9.090	0.100
188.000	-0.053	0.100
188.100	3.349	0.100
188.200	-3.582	0.100
188.300	-13.969	0.100
188.400	-5.616	0.100
188.500	-4.192	0.100
188.600	-4.290	0.100
188.700	1.339	0.100
188.800	13.046	0.100
188.900	-2.488	0.100
189.000	-2.214	0.100
189.100	-5.517	0.100
189.200	1.452	0.100
189.300	-6.410	0.100
189.400	6.459	0.100
189.500	-1.983	0.100
189.600	2.088	0.100
189.700	0.782	0.100
189.800	6.462	0.100
189.900	-2.795	0.100
190.000	0.005	0.100
190.100	-7.307	0.100
190.200	-10.036	0.100
190.300	2.983	0.100
190.400	2.178	0.100
190.500	1.775	0.100
190.600	3.364	0.100
190.700	-2.445	0.100
190.800	-4.122	0.100
190.900	-9.345	0.100
191.000	-3.573	0.100
191.100	-6.948	0.100
191.200	-0.599	0.100
191.300	7.265	0.100
191.400	0.605	0.100
191.500	0.171	0.100
191.600	-1.033	0.100
191.700	-0.684	0.100
191.800	5.256	0.100
191.900	0.616	0.100
192.000	3.548	0.100
192.100	-7.158	0.100
192.200	-2.099	0.100
192.300	-4.407	0.100
192.400	7.026	0.100
192.500	6.464	0.100
192.600	-1.207	0.100
192.700	-8.090	0.100
192.800	4.913	0.100
192.900	-0.023	0.100
193.000	13.065	0.100
193.100	7.337	0.100
193.200	-3.678	0.100
193.300	-15.297	0.100
193.400	-0.207	0.100
193.500	9.780	0.100
193.600	7.987	0.100
193.700	-3.111	0.100
193.800	-1.515	0.100
193.900	2.518	0.100
194.000	6.850	0.100
194.100	-6.629	0.100
194.200	5.161	0.100
194.300	2.569	0.100
194.400	2.251	0.100
194.500	-5.797	0.100
194.600	1.871	0.100
194.700	2.452	0.100
194.800	-6.571	0.100
194.900	2.560	0.100
195.000	-3.492	0.100
195.100	-5.615	0.100
195.200	-0.152	0.100
195.300	4.382	0.100
195.400	8.997	0.100
195.500	-2.052	0.100
195.600	-15.074	0.100
195.700	-14.072	0.100
195.800	2.743	0.100
195.900	4.357	0.100
196.000	-1.003	0.100
196.100	-3.296	0.100
196.200	-3.633	0.100
196.300	-0.850	0.100
196.400	6.401	0.100
196.500	10.215	0.100
196.600	8.548	0.100
196.700	-6.034	0.100
196.800	-0.217	0.100
196.900	-1.375	0.100
197.000	-5.155	0.100
197.100	10.670	0.100
197.200	18.385	0.100
197.300	8.273	0.100
197.400	6.186	0.100
197.500	-4.486	0.100
197.600	-4.301	0.100
197.700	4.124	0.100
197.800	6.520	0.100
197.900	1.825	0.100
198.000	7.588	0.100
198.100	-2.402	0.100
198.200	-0.111	0.100
198.300	5.968	0.100
198.400	7.563	0.100
198.500	2.555	0.100
198.600	-1.328	0.100
198.700	-2.486	0.100
198.800	3.764	0.100
198.900	-0.460	0.100
199.000	10.463	0.100
199.100	4.377	0.100
199.200	-2.037	0.100
199.300	5.420	0.100
199.400	1.395	0.100
199.500	7.913	0.100
199.600	4.863	0.100
199.700	-0.502	0.100
199.800	-8.356	0.100
199.900	4.814	0.100
200.000	17.015	0.100
200.100	6.766	0.100
200.200	8.245	0.100
200.300	-1.040	0.100
200.400	7.886	0.100
200.500	-0.922	0.100
200.600	4.695	0.100
200.700	13.296	0.100
200.800	7.224	0.100
200.900	8.845	0.100
201.000	0.464	0.100
201.100	2.013	0.100
201.200	1.140	0.100
201.300	-6.405	0.100
201.400	-0.200	0.100
201.500	-1.298	0.100
201.600	-1.441	0.100
201.700	4.150	0.100
201.800	14.094	0.100
201.900	2.936	0.100
202.000	2.327	0.100
202.100	-2.682	0.100
202.200	-3.744	0.100
202.300	-5.327	0.100
202.400	0.275	0.100
202.500	6.847	0.100
202.600	6.447	0.100
202.700	12.472	0.100
202.800	6.670	0.100
202.900	5.750	0.100
203.000	1.903	0.100
203.100	-2.112	0.100
203.200	4.194	0.100
203.300	-5.208	0.100
203.400	10.414	0.100
203.500	8.265	0.100
203.600	7.987	0.100
203.700	7.405	0.100
203.800	-6.187	0.100
203.900	-0.955	0.100
204.000	16.874	0.100
204.100	6.164	0.100
204.200	15.485	0.100
204.300	-0.446	0.100
204.400	1.609	0.100
204.500	0.368	0.100
204.600	7.387	0.100
204.700	6.529	0.100
204.800	16.804	0.100
204.900	7.049	0.100
205.000	13.779	0.100
205.100	13.634	0.100
205.200	6.926	0.100
205.300	1.573	0.100
205.400	8.171	0.100
205.500	5.748	0.100
205.600	9.679	0.100
205.700	13.610	0.100
205.800	6.352	0.100
205.900	13.321	0.100
206.000	10.027	0.100
206.100	-1.198	0.100
206.200	0.429	0.100
206.300	5.438	0.100
206.400	9.039	0.100
206.500	7.404	0.100
206.600	7.459	0.100
206.700	7.064	0.100
206.800	12.121	0.100
206.900	7.923	0.100
207.000	9.698	0.100
207.100	3.088	0.100
207.200	2.882	0.100
207.300	12.958	0.100
207.400	9.971	0.100
207.500	8.462	0.100
207.600	4.884	0.100
207.700	6.637	0.100
207.800	6.455	0.100
207.900	8.114	0.100
208.000	0.562	0.100
208.100	4.089	0.100
208.200	6.079	0.100
208.300	14.578	0.100
208.400	11.889	0.100
208.500	10.001	0.100
208.600	5.361	0.100
208.700	-1.319	0.100
208.800	13.581	0.100
208.900	0.027	0.100
209.000	17.278	0.100
209.100	4.201	0.100
209.200	9.741	0.100
209.300	9.291	0.100
209.400	3.853	0.100
209.500	3.006	0.100
209.600	4.881	0.100
209.700	9.772	0.100
209.800	8.790	0.100
209.900	3.503	0.100
210.000	3.764	0.100
210.100	10.352	0.100
210.200	11.773	0.100
210.300	22.191	0.100
210.400	22.389	0.100
210.500	10.141	0.100
210.600	7.131	0.100
210.700	5.198	0.100
210.800	-1.415	0.100
210.900	11.834	0.100
211.000	11.176	0.100
211.100	3.877	0.100
211.200	5.998	0.100
211.300	1.494	0.100
211.400	17.876	0.100
211.500	16.753	0.100
211.600	2.904	0.100
211.700	4.963	0.100
211.800	3.736	0.100
211.900	5.438	0.100
212.000	11.102	0.100
212.100	1.540	0.100
212.200	3.452	0.100
212.300	14.819	0.100
212.400	9.821	0.100
212.500	3.107	0.100
212.600	12.535	0.100
212.700	-0.038	0.100
212.800	7.685	0.100
212.900	15.699	0.100
213.000	17.229	0.100
213.100	1.708	0.100
213.200	8.631	0.100
213.300	-0.497	0.100
213.400	6.522	0.100
213.500	14.425	0.100
213.600	14.360	0.100
213.700	15.837	0.100
213.800	15.891	0.100
213.900	8.057	0.100
214.000	10.964	0.100
214.100	14.809	0.100
214.200	10.098	0.100
214.300	-7.019	0.100
214.400	-1.238	0.100
214.500	9.385	0.100
214.600	17.108	0.100
214.700	14.946	0.100
214.800	6.535	0.100
214.900	15.380	0.100
215.000	17.682	0.100
215.100	7.348	0.100
215.200	7.411	0.100
215.300	0.982	0.100
215.400	15.727	0.100
215.500	17.357	0.100
215.600	12.360	0.100
215.700	11.516	0.100
215.800	6.606	0.100
215.900	4.986	0.100
216.000	13.565	0.100
216.100	3.731	0.100
216.200	3.642	0.100
216.300	3.817	0.100
216.400	21.877	0.100
216.500	10.533	0.100
216.600	12.323	0.100
216.700	11.663	0.100
216.800	13.316	0.100
216.900	4.840	0.100
217.000	5.014	0.100
217.100	8.909	0.100
217.200	-1.374	0.100
217.300	9.696	0.100
217.400	14.069	0.100
217.500	10.950	0.100
217.600	7.582	0.100
217.700	3.256	0.100
217.800	11.774	0.100
217.900	8.236	0.100
218.000	7.662	0.100
218.100	7.964	0.100
218.200	7.330	0.100
218.300	16.370	0.100
218.400	5.250	0.100
218.500	5.423	0.100
218.600	19.715	0.100
218.700	11.105	0.100
218.800	3.180	0.100
218.900	13.986	0.100
219.000	19.780	0.100
219.100	17.771	0.100
219.200	15.712	0.100
219.300	10.561	0.100
219.400	12.527	0.100
219.500	17.102	0.100
219.600	6.156	0.100
219.700	4.855	0.100
219.800	1.551	0.100
219.900	-6.666	0.100
220.000	3.776	0.100
220.100	3.991	0.100
220.200	15.224	0.100
220.300	14.650	0.100
220.400	9.391	0.100
220.500	10.402	0.100
220.600	7.241	0.100
220.700	13.628	0.100
220.800	23.106	0.100
220.900	12.113	0.100
221.000	11.117	0.100
221.100	7.428	0.100
221.200	10.055	0.100
221.300	14.419	0.100
221.400	13.679	0.100
221.500	17.174	0.100
221.600	6.604	0.100
221.700	6.972	0.100
221.800	7.367	0.100
221.900	13.540	0.100
222.000	14.209	0.100
222.100	12.797	0.100
222.200	11.821	0.100
222.300	17.827	0.100
222.400	20.245	0.100
222.500	4.772	0.100
222.600	11.104	0.100
222.700	5.677	0.100
222.800	5.552	0.100
222.900	4.869	0.100
223.000	17.837	0.100
223.100	17.988	0.100
223.200	9.769	0.100
223.300	18.513	0.100
223.400	18.525	0.100
223.500	13.879	0.100
223.600	18.693	0.100
223.700	15.476	0.100
223.800	17.826	0.100
223.900	13.229	0.100
224.000	3.697	0.100
224.100	13.489	0.100
224.200	5.809	0.100
224.300	13.622	0.100
224.400	9.308	0.100
224.500	16.947	0.100
224.600	5.043	0.100
224.700	10.737	0.100
224.800	11.026	0.100
224.900	10.234	0.100
225.000	11.547	0.100
225.100	18.135	0.100
225.200	19.701	0.100
225.300	13.793	0.100
225.400	7.943	0.100
225.500	0.482	0.100
225.600	12.064	0.100
225.700	8.622	0.100
225.800	13.283	0.100
225.900	15.963	0.100
226.000	14.277	0.100
226.100	16.446	0.100
226.200	10.829	0.100
226.300	16.037	0.100
226.400	10.444	0.100
226.500	-0.629	0.100
226.600	10.169	0.100
226.700	16.559	0.100
226.800	12.588	0.100
226.900	15.989	0.100
227.000	13.665	0.100
227.100	3.650	0.100
227.200	20.523	0.100
227.300	13.801	0.100
227.400	17.159	0.100
227.500	8.606	0.100
227.600	12.936	0.100
227.700	13.872	0.100
227.800	-3.532	0.100
227.900	8.547	0.100
228.000	11.599	0.100
228.100	18.327	0.100
228.200	15.265	0.100
228.300	19.033	0.100
228.400	14.102	0.100
228.500	11.133	0.100
228.600	12.671	0.100
228.700	19.278	0.100
228.800	15.729	0.100
228.900	12.695	0.100
229.000	9.104	0.100
229.100	9.896	0.100
229.200	23.887	0.100
229.300	9.226	0.100
229.400	2.375	0.100
229.500	9.567	0.100
229.600	16.935	0.100
229.700	13.603	0.100
229.800	11.692	0.100
229.900	9.463	0.100
230.000	16.556	0.100
230.100	12.360	0.100
230.200	19.386	0.100
230.300	6.357	0.100
230.400	16.692	0.100
230.500	19.606	0.100
230.600	21.548	0.100
230.700	10.297	0.100
230.800	13.665	0.100
230.900	15.596	0.100
231.000	14.471	0.100
231.100	12.274	0.100
231.200	10.864	0.100
231.300	-0.547	0.100
231.400	-0.887	0.100
231.500	5.421	0.100
231.600	18.590	0.100
231.700	21.521	0.100
231.800	5.836	0.100
231.900	19.900	0.100
232.000	7.946	0.100
232.100	16.588	0.100
232.200	7.740	0.100
232.300	6.811	0.100
232.400	3.356	0.100
232.500	10.920	0.100
232.600	19.329	0.100
232.700	22.867	0.100
232.800	19.091	0.100
232.900	14.832	0.100
233.000	17.358	0.100
233.100	10.035	0.100
233.200	8.625	0.100
233.300	5.029	0.100
233.400	14.408	0.100
233.500	7.278	0.100
233.600	14.841	0.100
233.700	13.327	0.100
233.800	16.637	0.100
233.900	11.702	0.100
234.000	9.469	0.100
234.100	15.096	0.100
234.200	20.937	0.100
234.300	14.028	0.100
234.400	16.104	0.100
234.500	16.920	0.100
234.600	12.331	0.100
234.700	17.261	0.100
234.800	27.129	0.100
234.900	15.368	0.100
235.000	13.763	0.100
235.100	23.943	0.100
235.200	8.418	0.100
235.300	6.728	0.100
235.400	3.897	0.100
235.500	21.546	0.100
235.600	18.283	0.100
235.700	9.849	0.100
235.800	12.759	0.100
235.900	19.362	0.100
236.000	8.960	0.100
236.100	20.192	0.100
236.200	6.196	0.100
236.300	16.582	0.100
236.400	17.662	0.100
236.500	6.493	0.100
236.600	12.375	0.100
236.700	9.656	0.100
236.800	15.029	0.100
236.900	14.131	0.100
237.000	10.816	0.100
237.100	13.968	0.100
237.200	14.299	0.100
237.300	11.332	0.100
237.400	18.070	0.100
237.500	10.054	0.100
237.600	12.155	0.100
237.700	13.363	0.100
237.800	9.945	0.100
237.900	13.209	0.100
238.000	4.302	0.100
238.100	11.820	0.100
238.200	20.128	0.100
238.300	24.819	0.100
238.400	20.756	0.100
238.500	14.646	0.100
238.600	7.381	0.100
238.700	8.130	0.100
238.800	13.659	0.100
238.900	14.541	0.100
239.000	11.928	0.100
239.100	16.301	0.100
239.200	11.220	0.100
239.300	21.793	0.100
239.400	13.722	0.100
239.500	13.062	0.100
239.600	24.720	0.100
239.700	17.367	0.100
239.800	13.146	0.100
239.900	22.477	0.100
240.000	2.766	0.100
240.100	6.530	0.100
240.200	11.932	0.100
240.300	22.191	0.100
240.400	16.401	0.100
240.500	1.379	0.100
240.600	21.089	0.100
240.700	17.394	0.100
240.800	19.844	0.100
240.900	13.497	0.100
241.000	6.459	0.100
241.100	10.208	0.100
241.200	14.916	0.100
241.300	5.959	0.100
241.400	5.493	0.100
241.500	15.719	0.100
241.600	5.875	0.100
241.700	19.494	0.100
241.800	3.175	0.100
241.900	11.202	0.100
242.000	16.625	0.100
242.100	22.259	0.100
242.200	13.915	0.100
242.300	5.411	0.100
242.400	4.787	0.100
242.500	10.904	0.100
242.600	21.059	0.100
242.700	16.873	0.100
242.800	14.529	0.100
242.900	10.318	0.100
243.000	11.998	0.100
243.100	8.884	0.100
243.200	10.789	0.100
243.300	8.002	0.100
243.400	17.019	0.100
243.500	7.000	0.100
243.600	6.170	0.100
243.700	7.657	0.100
243.800	18.139	0.100
243.900	4.819	0.100
244.000	14.004	0.100
244.100	10.655	0.100
244.200	1.945	0.100
244.300	2.139	0.100
244.400	16.158	0.100
244.500	1.033	0.100
244.600	14.959	0.100
244.700	7.787	0.100
244.800	5.628	0.100
244.900	12.942	0.100
245.000	10.910	0.100
245.100	13.139	0.100
245.200	15.756	0.100
245.300	7.192	0.100
245.400	1.272	0.100
245.500	5.673	0.100
245.600	10.419	0.100
245.700	10.888	0.100
245.800	14.580	0.100
245.900	2.899	0.100
246.000	8.317	0.100
246.100	-5.193	0.100
246.200	8.726	0.100
246.300	11.748	0.100
246.400	6.940	0.100
246.500	16.603	0.100
246.600	4.143	0.100
246.700	6.269	0.100
246.800	7.699	0.100
246.900	7.327	0.100
247.000	13.495	0.100
247.100	7.712	0.100
247.200	-3.972	0.100
247.300	-5.297	0.100
247.400	27.317	0.100
247.500	14.433	0.100
247.600	7.665	0.100
247.700	12.370	0.100
247.800	7.375	0.100
247.900	6.191	0.100
248.000	5.754	0.100
248.100	-2.917	0.100
248.200	2.648	0.100
248.300	14.405	0.100
248.400	6.747	0.100
248.500	11.300	0.100
248.600	8.368	0.100
248.700	4.001	0.100
248.800	11.743	0.100
248.900	1.334	0.100
249.000	-3.638	0.100
249.100	6.849	0.100
249.200	7.555	0.100
249.300	4.824	0.100
249.400	1.808	0.100
249.500	12.910	0.100
249.600	6.772	0.100
249.700	-2.261	0.100
249.800	0.863	0.100
249.900	2.442	0.100
250.000	-1.005	0.100
250.100	14.789	0.100
250.200	6.191	0.100
250.300	8.270	0.100
250.400	10.134	0.100
250.500	3.248	0.100
250.600	-0.592	0.100
250.700	7.677	0.100
250.800	5.222	0.100
250.900	-1.861	0.100
251.000	8.424	0.100
251.100	7.460	0.100
251.200	12.772	0.100
251.300	7.548	0.100
251.400	5.704	0.100
251.500	5.949	0.100
251.600	8.255	0.100
251.700	-3.527	0.100
251.800	6.880	0.100
251.900	9.543	0.100
252.000	-8.650	0.100
252.100	14.492	0.100
252.200	-4.261	0.100
252.300	10.101	0.100
252.400	10.728	0.100
252.500	7.514	0.100
252.600	7.788	0.100
252.700	4.738	0.100
252.800	-10.346	0.100
252.900	7.631	0.100
253.000	6.180	0.100
253.100	1.070	0.100
253.200	19.697	0.100
253.300	-0.875	0.100
253.400	0.439	0.100
253.500	1.900	0.100
253.600	-2.056	0.100
253.700	6.488	0.100
253.800	1.916	0.100
253.900	-1.719	0.100
254.000	-1.745	0.100
254.100	-1.646	0.100
254.200	14.693	0.100
254.300	17.231	0.100
254.400	5.875	0.100
254.500	8.842	0.100
254.600	11.638	0.100
254.700	4.380	0.100
254.800	6.465	0.100
254.900	-6.084	0.100
255.000	0.753	0.100
255.100	-6.727	0.100
255.200	2.794	0.100
255.300	-1.932	0.100
255.400	-3.424	0.100
255.500	1.565	0.100
255.600	4.934	0.100
255.700	3.620	0.100
255.800	5.801	0.100
255.900	3.728	0.100
256.000	-0.755	0.100
256.100	9.433	0.100
256.200	8.159	0.100
256.300	7.398	0.100
256.400	0.548	0.100
256.500	-1.133	0.100
256.600	-4.617	0.100
256.700	-5.422	0.100
256.800	-2.026	0.100
256.900	-1.121	0.100
257.000	4.638	0.100
257.100	11.813	0.100
257.200	3.745	0.100
257.300	2.874	0.100
257.400	-3.124	0.100
257.500	0.001	0.100
257.600	-2.490	0.100
257.700	-1.517	0.100
257.800	-0.341	0.100
257.900	4.569	0.100
258.000	-3.642	0.100
258.100	8.290	0.100
258.200	8.593	0.100
258.300	1.589	0.100
258.400	-6.031	0.100
258.500	-3.624	0.100
258.600	8.714	0.100
258.700	2.130	0.100
258.800	-0.362	0.100
258.900	-5.832	0.100
259.000	8.369	0.100
259.100	5.407	0.100
259.200	4.935	0.100
259.300	-3.770	0.100
259.400	5.939	0.100
259.500	2.813	0.100
259.600	0.170	0.100
259.700	-3.496	0.100
259.800	0.363	0.100
259.900	-2.992	0.100
260.000	2.189	0.100
260.100	-3.895	0.100
260.200	1.686	0.100
260.300	2.472	0.100
260.400	-2.025	0.100
260.500	0.210	0.100
260.600	1.076	0.100
260.700	8.139	0.100
260.800	2.777	0.100
260.900	4.657	0.100
261.000	6.848	0.100
261.100	-2.072	0.100
261.200	-6.615	0.100
261.300	4.894	0.100
261.400	-4.489	0.100
261.500	-13.464	0.100
261.600	4.513	0.100
261.700	8.493	0.100
261.800	3.977	0.100
261.900	-10.453	0.100
262.000	2.981	0.100
262.100	-2.993	0.100
262.200	-1.242	0.100
262.300	-5.776	0.100
262.400	-14.769	0.100
262.500	-1.700	0.100
262.600	-1.039	0.100
262.700	6.364	0.100
262.800	5.571	0.100
262.900	-2.737	0.100
263.000	-4.190	0.100
263.100	-10.618	0.100
263.200	-2.827	0.100
263.300	-4.363	0.100
263.400	-16.318	0.100
263.500	-9.905	0.100
263.600	0.667	0.100
263.700	5.850	0.100
263.800	1.343	0.100
263.900	-3.522	0.100
264.000	-5.646	0.100
264.100	-2.156	0.100
264.200	-3.891	0.100
264.300	0.834	0.100
264.400	-4.570	0.100
264.500	5.202	0.100
264.600	1.604	0.100
264.700	-4.218	0.100
264.800	-6.501	0.100
264.900	-1.797	0.100
265.000	-13.240	0.100
265.100	-9.134	0.100
265.200	2.795	0.100
265.300	-3.089	0.100
265.400	2.918	0.100
265.500	2.475	0.100
265.600	-4.623	0.100
265.700	-1.898	0.100
265.800	-10.833	0.100
265.900	-0.216	0.100
266.000	-0.457	0.100
266.100	5.422	0.100
266.200	-1.515	0.100
266.300	-9.808	0.100
266.400	-3.194	0.100
266.500	-3.252	0.100
266.600	-5.312	0.100
266.700	-12.095	0.100
266.800	-20.075	0.100
266.900	-8.775	0.100
267.000	-9.218	0.100
267.100	4.454	0.100
267.200	9.445	0.100
267.300	3.648	0.100
267.400	-0.858	0.100
267.500	-5.703	0.100
267.600	-5.499	0.100
267.700	-2.017	0.100
267.800	0.915	0.100
267.900	-10.778	0.100
268.000	-3.360	0.100
268.100	-7.499	0.100
268.200	-5.057	0.100
268.300	-4.382	0.100
268.400	-5.158	0.100
268.500	6.361	0.100
268.600	6.264	0.100
268.700	-8.167	0.100
268.800	-9.294	0.100
268.900	3.320	0.100
269.000	-1.283	0.100
269.100	-15.816	0.100
269.200	-13.152	0.100
269.300	-1.197	0.100
269.400	-8.177	0.100
269.500	-0.076	0.100
269.600	-12.374	0.100
269.700	2.088	0.100
269.800	0.347	0.100
269.900	1.435	0.100
270.000	1.301	0.100
270.100	-14.487	0.100
270.200	-10.025	0.100
270.300	-6.828	0.100
270.400	-5.951	0.100
270.500	-16.032	0.100
270.600	-11.783	0.100
270.700	-7.876	0.100
270.800	-10.259	0.100
270.900	2.368	0.100
271.000	0.870	0.100
271.100	-6.594	0.100
271.200	-0.643	0.100
271.300	6.973	0.100
271.400	-2.928	0.100
271.500	-7.461	0.100
271.600	-10.150	0.100
271.700	-12.823	0.100
271.800	-13.291	0.100
271.900	-3.053	0.100
272.000	-0.778	0.100
272.100	-9.965	0.100
272.200	-4.279	0.100
272.300	-7.151	0.100
272.400	-1.984	0.100
272.500	-5.986	0.100
272.600	-6.868	0.100
272.700	2.053	0.100
272.800	-15.481	0.100
272.900	-3.051	0.100
273.000	-8.596	0.100
273.100	-8.564	0.100
273.200	-9.851	0.100
273.300	-9.654	0.100
273.400	-7.363	0.100
273.500	-6.694	0.100
273.600	-14.490	0.100
273.700	-4.945	0.100
273.800	-2.989	0.100
273.900	-3.688	0.100
274.000	-4.258	0.100
274.100	-10.202	0.100
274.200	-4.603	0.100
274.300	-4.743	0.100
274.400	-3.225	0.100
274.500	-11.874	0.100
274.600	-4.585	0.100
274.700	-8.818	0.100
274.800	-15.685	0.100
274.900	-8.640	0.100
275.000	-6.675	0.100
275.100	1.797	0.100
275.200	-0.020	0.100
275.300	-12.745	0.100
275.400	-2.605	0.100
275.500	-7.061	0.100
275.600	-10.618	0.100
275.700	-13.832	0.100
275.800	-18.494	0.100
275.900	-9.466	0.100
276.000	-5.893	0.100
276.100	-16.287	0.100
276.200	-8.146	0.100
276.300	-11.869	0.100
276.400	-14.566	0.100
276.500	-4.937	0.100
276.600	-7.276	0.100
276.700	-4.532	0.100
276.800	-1.735	0.100
276.900	-4.716	0.100
277.000	-5.190	0.100
277.100	-1.545	0.100
277.200	-13.401	0.100
277.300	-16.257	0.100
277.400	-5.869	0.100
277.500	-1.530	0.100
277.600	-8.809	0.100
277.700	-10.328	0.100
277.800	-16.766	0.100
277.900	-10.934	0.100
278.000	-1.345	0.100
278.100	-0.369	0.100
278.200	-7.317	0.100
278.300	-0.741	0.100
278.400	-0.604	0.100
278.500	-2.395	0.100
278.600	-9.937	0.100
278.700	-9.323	0.100
278.800	-8.705	0.100
278.900	-5.675	0.100
279.000	-14.129	0.100
279.100	-4.174	0.100
279.200	-1.630	0.100
279.300	-2.873	0.100
279.400	-7.941	0.100
279.500	-6.170	0.100
279.600	-1.777	0.100
279.700	-10.033	0.100
279.800	-2.516	0.100
279.900	-11.471	0.100
280.000	-6.455	0.100
280.100	-9.297	0.100
280.200	-14.121	0.100
280.300	-20.247	0.100
280.400	-2.630	0.100
280.500	-2.908	0.100
280.600	-1.628	0.100
280.700	-2.117	0.100
280.800	-7.654	0.100
280.900	-5.299	0.100
281.000	-7.490	0.100
281.100	-9.526	0.100
281.200	-11.828	0.100
281.300	-13.747	0.100
281.400	-4.907	0.100
281.500	-2.203	0.100
281.600	2.634	0.100
281.700	2.160	0.100
281.800	-5.100	0.100
281.900	-16.634	0.100
282.000	-9.884	0.100
282.100	-11.132	0.100
282.200	-4.450	0.100
282.300	-11.681	0.100
282.400	1.344	0.100
282.500	0.462	0.100
282.600	-9.165	0.100
282.700	-12.653	0.100
282.800	-21.207	0.100
282.900	-14.965	0.100
283.000	-13.162	0.100
283.100	-7.817	0.100
283.200	-8.514	0.100
283.300	0.331	0.100
283.400	-10.906	0.100
283.500	-7.941	0.100
283.600	-14.987	0.100
283.700	-6.808	0.100
283.800	-7.779	0.100
283.900	-7.898	0.100
284.000	-8.822	0.100
284.100	-8.581	0.100
284.200	-4.766	0.100
284.300	-9.050	0.100
284.400	-3.516	0.100
284.500	-15.495	0.100
284.600	-14.873	0.100
284.700	-15.274	0.100
284.800	-8.288	0.100
284.900	-1.727	0.100
285.000	-11.191	0.100
285.100	-10.463	0.100
285.200	-10.672	0.100
285.300	-11.456	0.100
285.400	-13.826	0.100
285.500	-6.690	0.100
285.600	-15.030	0.100
285.700	-21.942	0.100
285.800	-5.114	0.100
285.900	-6.928	0.100
286.000	-7.219	0.100
286.100	-9.633	0.100
286.200	-14.097	0.100
286.300	-6.231	0.100
286.400	3.405	0.100
286.500	-4.709	0.100
286.600	-6.977	0.100
286.700	-8.962	0.100
286.800	-15.882	0.100
286.900	-13.531	0.100
287.000	-8.725	0.100
287.100	-1.727	0.100
287.200	-11.898	0.100
287.300	-7.230	0.100
287.400	-14.924	0.100
287.500	-8.482	0.100
287.600	-9.433	0.100
287.700	-12.252	0.100
287.800	-9.889	0.100
287.900	-23.400	0.100
288.000	-2.650	0.100
288.100	2.843	0.100
288.200	-12.694	0.100
288.300	-14.959	0.100
288.400	-11.398	0.100
288.500	5.812	0.100
288.600	-12.183	0.100
288.700	-4.638	0.100
288.800	-6.591	0.100
288.900	-12.497	0.100
289.000	-8.688	0.100
289.100	-3.905	0.100
289.200	-9.319	0.100
289.300	-3.913	0.100
289.400	-4.995	0.100
289.500	2.837	0.100
289.600	-3.843	0.100
289.700	-3.944	0.100
289.800	3.278	0.100
289.900	-7.253	0.100
290.000	-9.613	0.100
290.100	-13.091	0.100
290.200	-20.818	0.100
290.300	-13.252	0.100
290.400	-10.375	0.100
290.500	0.487	0.100
290.600	-7.023	0.100
290.700	-13.260	0.100
290.800	-6.053	0.100
290.900	-5.892	0.100
291.000	-9.545	0.100
291.100	-17.314	0.100
291.200	-31.319	0.100
291.300	-10.659	0.100
291.400	-13.452	0.100
291.500	-4.389	0.100
291.600	-3.399	0.100
291.700	-13.909	0.100
291.800	-5.207	0.100
291.900	-4.092	0.100
292.000	-7.645	0.100
292.100	-12.302	0.100
292.200	-4.132	0.100
292.300	-22.504	0.100
292.400	-10.631	0.100
292.500	-7.914	0.100
292.600	-5.968	0.100
292.700	-1.320	0.100
292.800	-1.677	0.100
292.900	-1.783	0.100
293.000	-10.849	0.100
293.100	-7.816	0.100
293.200	-10.082	0.100
293.300	-7.922	0.100
293.400	-10.451	0.100
293.500	-10.731	0.100
293.600	-11.005	0.100
293.700	-6.462	0.100
293.800	-8.554	0.100
293.900	-14.256	0.100
294.000	-1.210	0.100
294.100	-14.384	0.100
294.200	-9.783	0.100
294.300	-2.594	0.100
294.400	-10.510	0.100
294.500	-7.463	0.100
294.600	-18.620	0.100
294.700	-14.272	0.100
294.800	-10.013	0.100
294.900	1.057	0.100
295.000	-15.956	0.100
295.100	-11.022	0.100
295.200	-11.097	0.100
295.300	-7.035	0.100
295.400	-3.728	0.100
295.500	-10.836	0.100
295.600	-11.142	0.100
295.700	-7.211	0.100
295.800	-8.826	0.100
295.900	-6.438	0.100
296.000	-8.195	0.100
296.100	-3.197	0.100
296.200	-8.359	0.100
296.300	-6.427	0.100
296.400	-13.181	0.100
296.500	-8.458	0.100
296.600	-18.162	0.100
296.700	-25.869	0.100
296.800	-4.617	0.100
296.900	-1.683	0.100
297.000	-21.282	0.100
297.100	-4.781	0.100
297.200	-6.400	0.100
297.300	-13.214	0.100
297.400	5.336	0.100
297.500	-5.126	0.100
297.600	-18.434	0.100
297.700	-9.425	0.100
297.800	-9.482	0.100
297.900	-20.193	0.100
298.000	-13.863	0.100
298.100	-10.400	0.100
298.200	-19.504	0.100
298.300	-9.971	0.100
298.400	3.884	0.100
298.500	3.083	0.100
298.600	-7.529	0.100
298.700	-13.686	0.100
298.800	-13.286	0.100
298.900	-7.854	0.100
299.000	-12.585	0.100
299.100	-10.157	0.100
299.200	-5.814	0.100
299.300	-3.064	0.100
299.400	-6.671	0.100
299.500	-5.775	0.100
299.600	-8.068	0.100
299.700	-9.842	0.100
299.800	-10.299	0.100
299.900	-11.454	0.100
300.000	-3.511	0.100
300.100	-4.168	0.100
300.200	-9.436	0.100
300.300	-10.266	0.100
300.400	-1.069	0.100
300.500	-12.014	0.100
300.600	-18.870	0.100
300.700	-8.875	0.100
300.800	-7.949	0.100
300.900	-19.781	0.100
301.000	-7.428	0.100
301.100	-6.461	0.100
301.200	-8.200	0.100
301.300	-5.635	0.100
301.400	-2.139	0.100
301.500	-13.211	0.100
301.600	-4.921	0.100
301.700	-0.714	0.100
301.800	-8.792	0.100
301.900	-7.058	0.100
302.000	-22.271	0.100
302.100	-21.200	0.100
302.200	-14.438	0.100
302.300	-11.663	0.100
302.400	-9.287	0.100
302.500	-5.208	0.100
302.600	-14.653	0.100
302.700	-11.032	0.100
302.800	-11.762	0.100
302.900	-8.414	0.100
303.000	-14.633	0.100
303.100	-14.388	0.100
303.200	-10.948	0.100
303.300	-8.084	0.100
303.400	-3.387	0.100
303.500	-3.039	0.100
303.600	-11.715	0.100
303.700	-6.369	0.100
303.800	-6.128	0.100
303.900	-15.762	0.100
304.000	-17.531	0.100
304.100	-16.863	0.100
304.200	-6.769	0.100
304.300	-4.787	0.100
304.400	-8.372	0.100
304.500	-13.439	0.100
304.600	-14.707	0.100
304.700	-11.364	0.100
304.800	-15.813	0.100
304.900	0.522	0.100
305.000	4.596	0.100
305.100	-7.189	0.100
305.200	-6.989	0.100
305.300	-0.216	0.100
305.400	-7.937	0.100
305.500	-13.338	0.100
305.600	-9.775	0.100
305.700	-14.848	0.100
305.800	-4.189	0.100
305.900	-10.372	0.100
306.000	-9.632	0.100
306.100	-7.760	0.100
306.200	-12.336	0.100
306.300	-4.203	0.100
306.400	-11.579	0.100
306.500	-1.345	0.100
306.600	-6.662	0.100
306.700	-8.838	0.100
306.800	-5.488	0.100
306.900	-4.364	0.100
307.000	-7.472	0.100
307.100	-6.837	0.100
307.200	-13.632	0.100
307.300	4.828	0.100
307.400	-6.809	0.100
307.500	2.511	0.100
307.600	-10.005	0.100
307.700	-11.153	0.100
307.800	-11.761	0.100
307.900	-6.510	0.100
308.000	-8.940	0.100
308.100	-18.123	0.100
308.200	-16.121	0.100
308.300	-20.692	0.100
308.400	-9.792	0.100
308.500	-2.782	0.100
308.600	-1.449	0.100
308.700	-17.029	0.100
308.800	3.354	0.100
308.900	3.355	0.100
309.000	-1.443	0.100
309.100	-14.061	0.100
309.200	-12.178	0.100
309.300	-1.250	0.100
309.400	-12.911	0.100
309.500	-18.790	0.100
309.600	-4.176	0.100
309.700	0.616	0.100
309.800	-18.620	0.100
309.900	-10.764	0.100
310.000	-6.150	0.100
310.100	-10.474	0.100
310.200	-10.203	0.100
310.300	-13.108	0.100
310.400	-9.643	0.100
310.500	-0.429	0.100
310.600	-6.511	0.100
310.700	-19.527	0.100
310.800	-3.779	0.100
310.900	-13.448	0.100
311.000	-11.917	0.100
311.100	-10.398	0.100
311.200	-12.583	0.100
311.300	-7.358	0.100
311.400	-0.329	0.100
311.500	-13.135	0.100
311.600	-2.770	0.100
311.700	-5.118	0.100
311.800	-5.412	0.100
311.900	-7.201	0.100
312.000	-6.761	0.100
312.100	-11.994	0.100
312.200	-5.284	0.100
312.300	-2.897	0.100
312.400	-7.555	0.100
312.500	-11.057	0.100
312.600	-8.999	0.100
312.700	0.297	0.100
312.800	-6.254	0.100
312.900	-5.511	0.100
313.000	-14.515	0.100
313.100	-6.370	0.100
313.200	-9.130	0.100
313.300	-11.320	0.100
313.400	-17.091	0.100
313.500	-16.635	0.100
313.600	-1.937	0.100
313.700	-8.194	0.100
313.800	-12.807	0.100
313.900	-9.570	0.100
314.000	-13.328	0.100
314.100	-14.752	0.100
314.200	1.947	0.100
314.300	-10.029	0.100
314.400	-7.168	0.100
314.500	-0.999	0.100
314.600	-1.070	0.100
314.700	-8.662	0.100
314.800	-14.874	0.100
314.900	-14.162	0.100
315.000	-10.534	0.100
315.100	-25.750	0.100
315.200	-13.348	0.100
315.300	0.458	0.100
315.400	3.507	0.100
315.500	-11.682	0.100
315.600	-1.220	0.100
315.700	-7.066	0.100
315.800	-7.932	0.100
315.900	-15.147	0.100
316.000	-16.476	0.100
316.100	-3.496	0.100
316.200	-11.734	0.100
316.300	-11.618	0.100
316.400	-6.518	0.100
316.500	3.113	0.100
316.600	-8.196	0.100
316.700	-9.823	0.100
316.800	-1.731	0.100
316.900	-14.078	0.100
317.000	-10.643	0.100
317.100	-23.403	0.100
317.200	-11.223	0.100
317.300	-13.588	0.100
317.400	-9.662	0.100
317.500	-6.011	0.100
317.600	-7.196	0.100
317.700	-7.286	0.100
317.800	-14.786	0.100
317.900	-6.866	0.100
318.000	-9.966	0.100
318.100	-10.902	0.100
318.200	-10.172	0.100
318.300	-8.262	0.100
318.400	-12.036	0.100
318.500	-9.918	0.100
318.600	2.042	0.100
318.700	7.929	0.100
318.800	-8.534	0.100
318.900	-12.397	0.100
319.000	-8.656	0.100
319.100	-9.940	0.100
319.200	-19.319	0.100
319.300	-13.171	0.100
319.400	-3.464	0.100
319.500	-9.077	0.100
319.600	-6.903	0.100
319.700	1.720	0.100
319.800	-10.613	0.100
319.900	-15.197	0.100
320.000	-13.528	0.100
320.100	-6.961	0.100
320.200	-13.509	0.100
320.300	-14.443	0.100
320.400	-5.579	0.100
320.500	-3.611	0.100
320.600	-11.084	0.100
320.700	-7.502	0.100
320.800	-6.652	0.100
320.900	-11.778	0.100
321.000	-1.816	0.100
321.100	-14.089	0.100
321.200	-10.617	0.100
321.300	-13.171	0.100
321.400	-1.909	0.100
321.500	-2.459	0.100
321.600	-8.472	0.100
321.700	-0.268	0.100
321.800	-15.125	0.100
321.900	-13.159	0.100
322.000	-14.535	0.100
322.100	1.350	0.100
322.200	-0.719	0.100
322.300	-4.823	0.100
322.400	-22.405	0.100
322.500	-9.526	0.100
322.600	-5.115	0.100
322.700	-1.806	0.100
322.800	-10.303	0.100
322.900	-11.531	0.100
323.000	-3.231	0.100
323.100	-8.249	0.100
323.200	-1.299	0.100
323.300	-3.719	0.100
323.400	-0.394	0.100
323.500	-6.135	0.100
323.600	-14.265	0.100
323.700	-8.057	0.100
323.800	-6.565	0.100
323.900	-2.904	0.100
324.000	-4.162	0.100
324.100	-7.105	0.100
324.200	-21.360	0.100
324.300	-13.181	0.100
324.400	-2.570	0.100
324.500	0.329	0.100
324.600	-6.397	0.100
324.700	-4.884	0.100
324.800	-16.593	0.100
324.900	-17.446	0.100
325.000	-10.945	0.100
325.100	-2.634	0.100
325.200	-3.444	0.100
325.300	-0.762	0.100
325.400	-9.171	0.100
325.500	-14.559	0.100
325.600	-13.861	0.100
325.700	-5.688	0.100
325.800	-12.297	0.100
325.900	-1.599	0.100
326.000	-6.212	0.100
326.100	-15.822	0.100
326.200	-10.481	0.100
326.300	-8.794	0.100
326.400	3.496	0.100
326.500	4.188	0.100
326.600	-4.247	0.100
326.700	-8.660	0.100
326.800	-19.330	0.100
326.900	-4.831	0.100
327.000	-9.666	0.100
327.100	-8.649	0.100
327.200	-0.437	0.100
327.300	-12.306	0.100
327.400	-8.601	0.100
327.500	-17.331	0.100
327.600	-6.966	0.100
327.700	-2.749	0.100
327.800	3.147	0.100
327.900	-5.196	0.100
328.000	-10.885	0.100
328.100	-23.871	0.100
328.200	-16.409	0.100
328.300	-8.876	0.100
328.400	-4.312	0.100
328.500	-5.109	0.100
328.600	-6.699	0.100
328.700	-18.752	0.100
328.800	-1.197	0.100
328.900	-4.979	0.100
329.000	-7.690	0.100
329.100	-4.709	0.100
329.200	-6.679	0.100
329.300	-12.021	0.100
329.400	6.203	0.100
329.500	-6.397	0.100
329.600	-15.016	0.100
329.700	-11.936	0.100
329.800	-1.595	0.100
329.900	-6.309	0.100
330.000	0.597	0.100
330.100	-1.425	0.100
330.200	-2.194	0.100
330.300	-15.342	0.100
330.400	-16.521	0.100
330.500	-12.955	0.100
330.600	-5.199	0.100
330.700	-17.051	0.100
330.800	-3.914	0.100
330.900	-4.182	0.100
331.000	-1.254	0.100
331.100	-9.935	0.100
331.200	0.558	0.100
331.300	-4.148	0.100
331.400	-13.055	0.100
331.500	0.450	0.100
331.600	-3.996	0.100
331.700	-3.316	0.100
331.800	-7.128	0.100
331.900	2.109	0.100
332.000	-0.611	0.100
332.100	-2.932	0.100
332.200	-0.815	0.100
332.300	-2.497	0.100
332.400	-7.091	0.100
332.500	-8.382	0.100
332.600	-4.923	0.100
332.700	-1.197	0.100
332.800	-10.272	0.100
332.900	-3.881	0.100
333.000	-8.599	0.100
333.100	0.375	0.100
333.200	-0.614	0.100
333.300	-0.434	0.100
333.400	-7.923	0.100
333.500	-3.271	0.100
333.600	-3.430	0.100
333.700	5.641	0.100
333.800	-0.985	0.100
333.900	1.810	0.100
334.000	-6.787	0.100
334.100	-0.545	0.100
334.200	-3.560	0.100
334.300	1.051	0.100
334.400	5.517	0.100
334.500	0.969	0.100
334.600	1.461	0.100
334.700	-0.689	0.100
334.800	-2.053	0.100
334.900	-7.726	0.100
335.000	9.917	0.100
335.100	-5.090	0.100
335.200	-4.518	0.100
335.300	-6.123	0.100
335.400	4.444	0.100
335.500	-2.933	0.100
335.600	12.940	0.100
335.700	9.251	0.100
335.800	5.702	0.100
335.900	-3.955	0.100
336.000	-1.542	0.100
336.100	-1.277	0.100
336.200	-6.205	0.100
336.300	-2.570	0.100
336.400	13.331	0.100
336.500	9.630	0.100
336.600	5.699	0.100
336.700	-3.897	0.100
336.800	-2.003	0.100
336.900	-5.999	0.100
337.000	-2.709	0.100
337.100	1.231	0.100
337.200	-6.253	0.100
337.300	3.427	0.100
337.400	-6.568	0.100
337.500	-1.222	0.100
337.600	5.094	0.100
337.700	6.352	0.100
337.800	8.347	0.100
337.900	11.706	0.100
338.000	-1.402	0.100
338.100	-0.507	0.100
338.200	2.067	0.100
338.300	8.390	0.100
338.400	-0.976	0.100
338.500	3.665	0.100
338.600	-14.047	0.100
338.700	-4.103	0.100
338.800	7.304	0.100
338.900	9.647	0.100
339.000	3.910	0.100
339.100	10.165	0.100
339.200	2.845	0.100
339.300	-1.349	0.100
339.400	-6.351	0.100
339.500	-0.675	0.100
339.600	6.959	0.100
339.700	0.960	0.100
339.800	7.325	0.100
339.900	2.159	0.100
340.000	1.015	0.100
340.100	0.747	0.100
340.200	6.753	0.100
340.300	7.013	0.100
340.400	3.836	0.100
340.500	5.723	0.100
340.600	6.406	0.100
340.700	0.721	0.100
340.800	0.336	0.100
340.900	3.793	0.100
341.000	-6.252	0.100
341.100	-5.786	0.100
341.200	3.520	0.100
341.300	-9.973	0.100
341.400	1.968	0.100
341.500	9.793	0.100
341.600	9.689	0.100
341.700	7.028	0.100
341.800	-3.916	0.100
341.900	3.048	0.100
342.000	-0.327	0.100
342.100	7.080	0.100
342.200	5.372	0.100
342.300	5.478	0.100
342.400	5.018	0.100
342.500	-0.412	0.100
342.600	0.847	0.100
342.700	-0.184	0.100
342.800	-4.799	0.100
342.900	4.931	0.100
343.000	-4.382	0.100
343.100	0.901	0.100
343.200	5.690	0.100
343.300	2.808	0.100
343.400	7.179	0.100
343.500	-2.562	0.100
343.600	4.160	0.100
343.700	8.574	0.100
343.800	6.789	0.100
343.900	8.629	0.100
344.000	7.363	0.100
344.100	0.336	0.100
344.200	4.924	0.100
344.300	3.312	0.100
344.400	-0.166	0.100
344.500	4.509	0.100
344.600	0.411	0.100
344.700	5.229	0.100
344.800	1.059	0.100
344.900	4.040	0.100
345.000	-1.009	0.100
345.100	11.085	0.100
345.200	14.001	0.100
345.300	15.665	0.100
345.400	3.003	0.100
345.500	4.449	0.100
345.600	-1.736	0.100
345.700	0.828	0.100
345.800	4.850	0.100
345.900	13.444	0.100
346.000	12.572	0.100
346.100	2.491	0.100
346.200	12.680	0.100
346.300	5.409	0.100
346.400	-4.432	0.100
346.500	-1.495	0.100
346.600	11.928	0.100
346.700	2.551	0.100
346.800	8.114	0.100
346.900	5.564	0.100
347.000	9.244	0.100
347.100	12.208	0.100
347.200	17.911	0.100
347.300	11.525	0.100
347.400	-1.895	0.100
347.500	6.567	0.100
347.600	14.199	0.100
347.700	16.621	0.100
347.800	15.367	0.100
347.900	1.956	0.100
348.000	9.551	0.100
348.100	5.629	0.100
348.200	5.631	0.100
348.300	-0.216	0.100
348.400	2.221	0.100
348.500	4.164	0.100
348.600	9.338	0.100
348.700	3.901	0.100
348.800	8.297	0.100
348.900	6.518	0.100
349.000	10.279	0.100
349.100	-1.529	0.100
349.200	8.066	0.100
349.300	18.661	0.100
349.400	10.825	0.100
349.500	0.352	0.100
349.600	4.242	0.100
349.700	8.078	0.100
349.800	16.002	0.100
349.900	0.310	0.100
350.000	3.803	0.100
350.100	12.856	0.100
350.200	6.172	0.100
350.300	10.766	0.100
350.400	6.332	0.100
350.500	2.962	0.100
350.600	3.171	0.100
350.700	14.699	0.100
350.800	6.736	0.100
350.900	0.749	0.100
351.000	19.529	0.100
351.100	20.451	0.100
351.200	-0.214	0.100
351.300	7.255	0.100
351.400	13.204	0.100
351.500	15.402	0.100
351.600	1.431	0.100
351.700	5.093	0.100
351.800	4.750	0.100
351.900	11.373	0.100
352.000	10.920	0.100
352.100	8.286	0.100
352.200	9.027	0.100
352.300	9.792	0.100
352.400	2.752	0.100
352.500	4.004	0.100
352.600	9.080	0.100
352.700	12.947	0.100
352.800	11.118	0.100
352.900	9.400	0.100
353.000	13.716	0.100
353.100	16.758	0.100
353.200	11.846	0.100
353.300	0.986	0.100
353.400	9.782	0.100
353.500	14.928	0.100
353.600	7.241	0.100
353.700	14.820	0.100
353.800	11.299	0.100
353.900	16.878	0.100
354.000	7.314	0.100
354.100	16.038	0.100
354.200	12.685	0.100
354.300	2.589	0.100
354.400	14.160	0.100
354.500	1.345	0.100
354.600	11.643	0.100
354.700	22.373	0.100
354.800	11.713	0.100
354.900	7.206	0.100
355.000	14.339	0.100
355.100	9.021	0.100
355.200	7.552	0.100
355.300	8.188	0.100
355.400	7.811	0.100
355.500	17.259	0.100
355.600	24.155	0.100
355.700	11.846	0.100
355.800	6.043	0.100
355.900	16.224	0.100
356.000	1.840	0.100
356.100	18.364	0.100
356.200	19.992	0.100
356.300	15.220	0.100
356.400	23.074	0.100
356.500	17.005	0.100
356.600	12.747	0.100
356.700	11.328	0.100
356.800	18.226	0.100
356.900	17.626	0.100
357.000	7.906	0.100
357.100	12.349	0.100
357.200	7.537	0.100
357.300	10.887	0.100
357.400	15.436	0.100
357.500	10.008	0.100
357.600	18.984	0.100
357.700	16.256	0.100
357.800	14.394	0.100
357.900	25.461	0.100
358.000	10.912	0.100
358.100	15.112	0.100
358.200	9.435	0.100
358.300	9.170	0.100
358.400	12.729	0.100
358.500	4.786	0.100
358.600	2.162	0.100
358.700	13.155	0.100
358.800	7.935	0.100
358.900	16.594	0.100
359.000	12.025	0.100
359.100	22.052	0.100
359.200	23.793	0.100
359.300	5.756	0.100
359.400	11.723	0.100
359.500	12.117	0.100
359.600	6.149	0.100
359.700	0.686	0.100
359.800	14.748	0.100
359.900	15.223	0.100
360.000	12.898	0.100
360.100	20.243	0.100
360.200	18.309	0.100
360.300	18.776	0.100
360.400	16.583	0.100
360.500	16.742	0.100
360.600	15.102	0.100
360.700	24.421	0.100
360.800	8.057	0.100
360.900	5.511	0.100
361.000	9.819	0.100
361.100	11.518	0.100
361.200	17.720	0.100
361.300	15.520	0.100
361.400	15.551	0.100
361.500	1.285	0.100
361.600	13.363	0.100
361.700	11.577	0.100
361.800	4.696	0.100
361.900	20.299	0.100
362.000	19.716	0.100
362.100	15.184	0.100
362.200	22.614	0.100
362.300	13.995	0.100
362.400	10.671	0.100
362.500	16.051	0.100
362.600	11.732	0.100
362.700	4.600	0.100
362.800	23.357	0.100
362.900	7.307	0.100
363.000	19.045	0.100
363.100	12.834	0.100
363.200	17.053	0.100
363.300	17.777	0.100
363.400	9.305	0.100
363.500	16.362	0.100
363.600	16.761	0.100
363.700	10.164	0.100
363.800	12.541	0.100
363.900	20.029	0.100
364.000	29.743	0.100
364.100	16.037	0.100
364.200	14.429	0.100
364.300	17.133	0.100
364.400	13.499	0.100
364.500	32.248	0.100
364.600	20.396	0.100
364.700	21.286	0.100
364.800	12.889	0.100
364.900	11.514	0.100
365.000	15.081	0.100
365.100	7.888	0.100
365.200	11.590	0.100
365.300	12.061	0.100
365.400	16.485	0.100
365.500	17.811	0.100
365.600	20.817	0.100
365.700	13.214	0.100
365.800	15.937	0.100
365.900	14.432	0.100
366.000	11.765	0.100
366.100	10.503	0.100
366.200	5.503	0.100
366.300	13.675	0.100
366.400	14.588	0.100
366.500	19.943	0.100
366.600	4.351	0.100
366.700	15.977	0.100
366.800	19.858	0.100
366.900	26.283	0.100
367.000	17.243	0.100
367.100	13.878	0.100
367.200	23.221	0.100
367.300	16.148	0.100
367.400	8.995	0.100
367.500	14.777	0.100
367.600	16.893	0.100
367.700	11.015	0.100
367.800	14.414	0.100
367.900	13.399	0.100
368.000	13.022	0.100
368.100	10.526	0.100
368.200	17.953	0.100
368.300	20.808	0.100
368.400	12.917	0.100
368.500	13.576	0.100
368.600	14.623	0.100
368.700	14.813	0.100
368.800	11.799	0.100
368.900	14.030	0.100
369.000	17.873	0.100
369.100	23.747	0.100
369.200	15.578	0.100
369.300	17.688	0.100
369.400	20.492	0.100
369.500	20.829	0.100
369.600	24.077	0.100
369.700	21.690	0.100
369.800	21.447	0.100
369.900	15.559	0.100
370.000	24.653	0.100
370.100	24.320	0.100
370.200	19.743	0.100
370.300	20.423	0.100
370.400	14.790	0.100
370.500	11.121	0.100
370.600	9.127	0.100
370.700	15.678	0.100
370.800	7.199	0.100
370.900	9.918	0.100
371.000	11.057	0.100
371.100	23.169	0.100
371.200	15.269	0.100
371.300	17.195	0.100
371.400	8.167	0.100
371.500	16.500	0.100
371.600	19.189	0.100
371.700	11.690	0.100
371.800	14.309	0.100
371.900	11.880	0.100
372.000	25.694	0.100
372.100	26.633	0.100
372.200	16.466	0.100
372.300	18.278	0.100
372.400	19.836	0.100
372.500	16.608	0.100
372.600	15.569	0.100
372.700	15.063	0.100
372.800	16.027	0.100
372.900	13.783	0.100
373.000	15.359	0.100
373.100	18.512	0.100
373.200	24.425	0.100
373.300	21.963	0.100
373.400	19.842	0.100
373.500	19.046	0.100
373.600	17.169	0.100
373.700	18.983	0.100
373.800	14.051	0.100
373.900	18.483	0.100
374.000	8.114	0.100
374.100	17.976	0.100
374.200	17.439	0.100
374.300	6.530	0.100
374.400	13.469	0.100
374.500	26.737	0.100
374.600	34.293	0.100
374.700	16.456	0.100
374.800	19.521	0.100
374.900	13.692	0.100
375.000	23.704	0.100
375.100	14.213	0.100
375.200	17.335	0.100
375.300	17.491	0.100
375.400	21.681	0.100
375.500	16.295	0.100
375.600	6.116	0.100
375.700	7.725	0.100
375.800	33.178	0.100
375.900	29.569	0.100
376.000	13.011	0.100
376.100	20.460	0.100
376.200	14.203	0.100
376.300	24.027	0.100
376.400	13.766	0.100
376.500	18.075	0.100
376.600	16.497	0.100
376.700	17.892	0.100
376.800	15.239	0.100
376.900	19.758	0.100
377.000	19.440	0.100
377.100	13.994	0.100
377.200	23.088	0.100
377.300	24.677	0.100
377.400	9.495	0.100
377.500	17.806	0.100
377.600	7.247	0.100
377.700	19.597	0.100
377.800	15.290	0.100
377.900	16.222	0.100
378.000	16.257	0.100
378.100	23.019	0.100
378.200	16.947	0.100
378.300	19.514	0.100
378.400	13.919	0.100
378.500	8.495	0.100
378.600	26.552	0.100
378.700	14.779	0.100
378.800	10.898	0.100
378.900	17.176	0.100
379.000	14.709	0.100
379.100	13.280	0.100
379.200	14.001	0.100
379.300	19.994	0.100
379.400	26.228	0.100
379.500	24.236	0.100
379.600	23.173	0.100
379.700	12.228	0.100
379.800	18.077	0.100
379.900	14.621	0.100
380.000	19.094	0.100
380.100	20.957	0.100
380.200	19.302	0.100
380.300	22.587	0.100
380.400	22.862	0.100
380.500	21.684	0.100
380.600	22.418	0.100
380.700	21.665	0.100
380.800	14.867	0.100
380.900	13.731	0.100
381.000	23.751	0.100
381.100	18.166	0.100
381.200	25.923	0.100
381.300	20.184	0.100
381.400	12.268	0.100
381.500	13.726	0.100
381.600	27.371	0.100
381.700	16.515	0.100
381.800	10.083	0.100
381.900	17.238	0.100
382.000	9.181	0.100
382.100	15.411	0.100
382.200	16.255	0.100
382.300	20.434	0.100
382.400	18.631	0.100
382.500	19.326	0.100
382.600	16.941	0.100
382.700	14.215	0.100
382.800	16.854	0.100
382.900	14.729	0.100
383.000	19.313	0.100
383.100	14.711	0.100
383.200	26.389	0.100
383.300	27.981	0.100
383.400	26.024	0.100
383.500	21.726	0.100
383.600	19.243	0.100
383.700	17.264	0.100
383.800	23.937	0.100
383.900	18.821	0.100
384.000	18.129	0.100
384.100	18.410	0.100
384.200	17.201	0.100
384.300	20.136	0.100
384.400	10.508	0.100
384.500	9.719	0.100
384.600	18.879	0.100
384.700	26.510	0.100
384.800	32.073	0.100
384.900	19.702	0.100
385.000	20.589	0.100
385.100	24.173	0.100
385.200	15.801	0.100
385.300	11.445	0.100
385.400	20.843	0.100
385.500	23.495	0.100
385.600	19.869	0.100
385.700	14.450	0.100
385.800	17.175	0.100
385.900	16.192	0.100
386.000	17.135	0.100
386.100	14.399	0.100
386.200	20.696	0.100
386.300	22.462	0.100
386.400	26.961	0.100
386.500	17.367	0.100
386.600	12.783	0.100
386.700	24.272	0.100
386.800	17.561	0.100
386.900	21.612	0.100
387.000	27.533	0.100
387.100	22.327	0.100
387.200	17.259	0.100
387.300	16.475	0.100
387.400	17.381	0.100
387.500	16.114	0.100
387.600	14.483	0.100
387.700	11.429	0.100
387.800	20.823	0.100
387.900	17.227	0.100
388.000	28.589	0.100
388.100	15.392	0.100
388.200	16.336	0.100
388.300	24.192	0.100
388.400	7.696	0.100
388.500	31.224	0.100
388.600	15.188	0.100
388.700	24.955	0.100
388.800	24.978	0.100
388.900	17.042	0.100
389.000	21.926	0.100
389.100	9.197	0.100
389.200	10.747	0.100
389.300	21.480	0.100
389.400	18.039	0.100
389.500	5.988	0.100
389.600	20.392	0.100
389.700	12.856	0.100
389.800	10.692	0.100
389.900	17.241	0.100
390.000	19.330	0.100
390.100	20.934	0.100
390.200	32.548	0.100
390.300	31.968	0.100
390.400	27.001	0.100
390.500	25.062	0.100
390.600	14.550	0.100
390.700	14.101	0.100
390.800	25.650	0.100
390.900	28.686	0.100
391.000	16.939	0.100
391.100	16.267	0.100
391.200	16.289	0.100
391.300	14.217	0.100
391.400	14.370	0.100
391.500	12.916	0.100
391.600	29.730	0.100
391.700	20.489	0.100
391.800	21.923	0.100
391.900	19.222	0.100
392.000	8.376	0.100
392.100	3.581	0.100
392.200	16.730	0.100
392.300	12.052	0.100
392.400	21.349	0.100
392.500	16.861	0.100
392.600	11.570	0.100
392.700	17.692	0.100
392.800	12.146	0.100
392.900	17.472	0.100
393.000	20.525	0.100
393.100	11.658	0.100
393.200	13.869	0.100
393.300	7.774	0.100
393.400	4.940	0.100
393.500	10.793	0.100
393.600	8.288	0.100
393.700	12.940	0.100
393.800	13.453	0.100
393.900	14.771	0.100
394.000	14.087	0.100
394.100	14.778	0.100
394.200	6.128	0.100
394.300	4.861	0.100
394.400	2.971	0.100
394.500	3.586	0.100
394.600	12.420	0.100
394.700	14.789	0.100
394.800	13.574	0.100
394.900	11.929	0.100
395.000	21.905	0.100
395.100	20.735	0.100
395.200	12.225	0.100
395.300	13.794	0.100
395.400	5.805	0.100
395.500	-1.965	0.100
395.600	6.608	0.100
395.700	13.781	0.100
395.800	18.263	0.100
395.900	13.460	0.100
396.000	14.796	0.100
396.100	8.157	0.100
396.200	12.046	0.100
396.300	3.490	0.100
396.400	9.545	0.100
396.500	14.178	0.100
396.600	13.533	0.100
396.700	9.516	0.100
396.800	14.123	0.100
396.900	19.573	0.100
397.000	13.125	0.100
397.100	20.487	0.100
397.200	17.719	0.100
397.300	23.727	0.100
397.400	2.914	0.100
397.500	0.083	0.100
397.600	7.313	0.100
397.700	7.940	0.100
397.800	15.961	0.100
397.900	4.208	0.100
398.000	8.278	0.100
398.100	10.966	0.100
398.200	7.609	0.100
398.300	14.336	0.100
398.400	25.785	0.100
398.500	15.019	0.100
398.600	14.672	0.100
398.700	11.239	0.100
398.800	9.889	0.100
398.900	-4.344	0.100
399.000	4.560	0.100
399.100	13.169	0.100
399.200	13.291	0.100
399.300	16.568	0.100
399.400	10.065	0.100
399.500	15.362	0.100
399.600	12.539	0.100
399.700	10.268	0.100
399.800	3.208	0.100
399.900	7.247	0.100
400.000	7.125	0.100
400.100	-0.067	0.100
400.200	2.425	0.100
400.300	3.393	0.100
400.400	17.537	0.100
400.500	12.941	0.100
400.600	17.552	0.100
400.700	4.395	0.100
400.800	7.110	0.100
400.900	6.691	0.100
401.000	3.745	0.100
401.100	9.177	0.100
401.200	5.326	0.100
401.300	7.044	0.100
401.400	9.034	0.100
401.500	10.292	0.100
401.600	20.357	0.100
401.700	22.750	0.100
401.800	17.085	0.100
401.900	7.056	0.100
402.000	2.133	0.100
402.100	5.287	0.100
402.200	8.347	0.100
402.300	2.593	0.100
402.400	2.422	0.100
402.500	1.403	0.100
402.600	11.683	0.100
402.700	2.724	0.100
402.800	9.523	0.100
402.900	1.302	0.100
403.000	3.390	0.100
403.100	4.308	0.100
403.200	-11.273	0.100
403.300	8.747	0.100
403.400	6.229	0.100
403.500	14.911	0.100
403.600	6.537	0.100
403.700	12.154	0.100
403.800	16.722	0.100
403.900	11.823	0.100
404.000	7.335	0.100
404.100	12.925	0.100
404.200	9.157	0.100
404.300	9.715	0.100
404.400	7.423	0.100
404.500	-6.318	0.100
404.600	3.899	0.100
404.700	8.318	0.100
404.800	7.226	0.100
404.900	5.791	0.100
405.000	9.416	0.100
405.100	12.894	0.100
405.200	0.562	0.100
405.300	5.697	0.100
405.400	-6.059	0.100
405.500	18.168	0.100
405.600	-1.619	0.100
405.700	1.195	0.100
405.800	3.756	0.100
405.900	-0.180	0.100
406.000	7.585	0.100
406.100	13.267	0.100
406.200	11.357	0.100
406.300	15.657	0.100
406.400	8.026	0.100
406.500	-4.344	0.100
406.600	-15.104	0.100
406.700	0.908	0.100
406.800	7.632	0.100
406.900	4.666	0.100
407.000	6.263	0.100
407.100	-3.881	0.100
407.200	3.920	0.100
407.300	13.125	0.100
407.400	3.483	0.100
407.500	-1.838	0.100
407.600	2.056	0.100
407.700	7.088	0.100
407.800	1.195	0.100
407.900	-0.642	0.100
408.000	-2.867	0.100
408.100	1.481	0.100
408.200	6.390	0.100
408.300	8.447	0.100
408.400	8.032	0.100
408.500	9.486	0.100
408.600	-2.016	0.100
408.700	2.811	0.100
408.800	-2.069	0.100
408.900	0.069	0.100
409.000	7.589	0.100
409.100	2.702	0.100
409.200	0.463	0.100
409.300	3.815	0.100
409.400	-0.959	0.100
409.500	-3.525	0.100
409.600	0.311	0.100
409.700	8.470	0.100
409.800	-1.106	0.100
409.900	-5.394	0.100
410.000	-6.065	0.100
410.100	-2.536	0.100
410.200	10.835	0.100
410.300	2.417	0.100
410.400	7.513	0.100
410.500	7.407	0.100
410.600	4.297	0.100
410.700	-2.116	0.100
410.800	-4.370	0.100
410.900	-13.323	0.100
411.000	3.175	0.100
411.100	-5.098	0.100
411.200	6.380	0.100
411.300	0.855	0.100
411.400	-5.030	0.100
411.500	-12.350	0.100
411.600	9.502	0.100
411.700	-1.598	0.100
411.800	5.831	0.100
411.900	-8.286	0.100
412.000	-6.238	0.100
412.100	-3.227	0.100
412.200	1.281	0.100
412.300	12.907	0.100
412.400	2.255	0.100
412.500	10.862	0.100
412.600	9.273	0.100
412.700	0.625	0.100
412.800	-9.898	0.100
412.900	-3.017	0.100
413.000	-4.277	0.100
413.100	-4.738	0.100
413.200	2.318	0.100
413.300	7.855	0.100
413.400	4.271	0.100
413.500	-0.336	0.100
413.600	-5.515	0.100
413.700	6.500	0.100
413.800	3.087	0.100
413.900	-4.742	0.100
414.000	7.681	0.100
414.100	5.370	0.100
414.200	-5.186	0.100
414.300	-5.606	0.100
414.400	0.604	0.100
414.500	7.793	0.100
414.600	7.576	0.100
414.700	8.372	0.100
414.800	8.612	0.100
414.900	2.484	0.100
415.000	4.096	0.100
415.100	-12.942	0.100
415.200	-10.277	0.100
415.300	-2.714	0.100
415.400	-8.992	0.100
415.500	0.365	0.100
415.600	-3.720	0.100
415.700	-1.405	0.100
415.800	-3.135	0.100
415.900	5.122	0.100
416.000	-0.639	0.100
416.100	3.885	0.100
416.200	-1.828	0.100
416.300	-2.645	0.100
416.400	-1.016	0.100
416.500	0.542	0.100
416.600	3.712	0.100
416.700	12.889	0.100
416.800	-8.797	0.100
416.900	-2.168	0.100
417.000	-5.140	0.100
417.100	-5.243	0.100
417.200	-6.005	0.100
417.300	-6.624	0.100
417.400	-2.166	0.100
417.500	-5.114	0.100
417.600	7.329	0.100
417.700	5.128	0.100
417.800	2.270	0.100
417.900	-0.943	0.100
418.000	7.225	0.100
418.100	-5.058	0.100
418.200	-6.292	0.100
418.300	0.501	0.100
418.400	-10.118	0.100
418.500	-7.880	0.100
418.600	1.575	0.100
418.700	-0.415	0.100
418.800	-11.547	0.100
418.900	-11.653	0.100
419.000	-5.730	0.100
419.100	3.005	0.100
419.200	-10.105	0.100
419.300	5.992	0.100
419.400	2.195	0.100
419.500	0.139	0.100
419.600	-8.564	0.100
419.700	2.039	0.100
419.800	-1.032	0.100
419.900	1.027	0.100
420.000	-4.743	0.100
420.100	-0.412	0.100
420.200	-8.120	0.100
420.300	-2.485	0.100
420.400	1.840	0.100
420.500	-1.539	0.100
420.600	-11.684	0.100
420.700	1.158	0.100
420.800	-2.282	0.100
420.900	-2.961	0.100
421.000	-0.007	0.100
421.100	-0.137	0.100
421.200	1.238	0.100
421.300	-8.910	0.100
421.400	-0.964	0.100
421.500	2.784	0.100
421.600	5.559	0.100
421.700	-3.432	0.100
421.800	2.958	0.100
421.900	-1.033	0.100
422.000	-1.933	0.100
422.100	-6.191	0.100
422.200	-10.580	0.100
422.300	-2.421	0.100
422.400	-9.996	0.100
422.500	-3.333	0.100
422.600	-7.216	0.100
422.700	3.326	0.100
422.800	4.706	0.100
422.900	-5.250	0.100
423.000	-10.946	0.100
423.100	-16.501	0.100
423.200	0.390	0.100
423.300	-9.992	0.100
423.400	-7.090	0.100
423.500	0.195	0.100
423.600	-0.177	0.100
423.700	-5.708	0.100
423.800	-14.482	0.100
423.900	-3.578	0.100
424.000	-0.627	0.100
424.100	5.386	0.100
424.200	-4.600	0.100
424.300	-2.228	0.100
424.400	-6.563	0.100
424.500	3.417	0.100
424.600	-3.021	0.100
424.700	-5.691	0.100
424.800	3.512	0.100
424.900	2.895	0.100
425.000	-6.988	0.100
425.100	-3.911	0.100
425.200	-6.474	0.100
425.300	-3.581	0.100
425.400	-7.911	0.100
425.500	-4.221	0.100
425.600	-9.014	0.100
425.700	-6.521	0.100
425.800	-9.843	0.100
425.900	4.141	0.100
426.000	-4.495	0.100
426.100	-4.579	0.100
426.200	-12.850	0.100
426.300	1.573	0.100
426.400	-8.313	0.100
426.500	-1.568	0.100
426.600	-12.268	0.100
426.700	-12.430	0.100
426.800	-12.135	0.100
426.900	-3.310	0.100
427.000	-4.729	0.100
427.100	-7.125	0.100
427.200	-17.115	0.100
427.300	-3.902	0.100
427.400	-7.064	0.100
427.500	1.331	0.100
427.600	-2.872	0.100
427.700	-3.020	0.100
427.800	-14.555	0.100
427.900	-8.144	0.100
428.000	2.919	0.100
428.100	-14.107	0.100
428.200	-17.110	0.100
428.300	6.718	0.100
428.400	4.817	0.100
428.500	-8.181	0.100
428.600	0.880	0.100
428.700	-12.180	0.100
428.800	-8.306	0.100
428.900	-9.107	0.100
429.000	-7.442	0.100
429.100	-3.125	0.100
429.200	-17.793	0.100
429.300	-10.066	0.100
429.400	-16.200	0.100
429.500	2.449	0.100
429.600	8.378	0.100
429.700	-7.699	0.100
429.800	-2.706	0.100
429.900	-15.945	0.100
430.000	-5.172	0.100
430.100	-0.920	0.100
430.200	1.358	0.100
430.300	-6.244	0.100
430.400	-5.777	0.100
430.500	-0.787	0.100
430.600	-6.121	0.100
430.700	-1.117	0.100
430.800	-5.776	0.100
430.900	-13.156	0.100
431.000	-5.717	0.100
431.100	-2.950	0.100
431.200	-6.250	0.100
431.300	7.618	0.100
431.400	-5.251	0.100
431.500	-5.773	0.100
431.600	-13.555	0.100
431.700	-6.521	0.100
431.800	-15.349	0.100
431.900	0.215	0.100
432.000	-5.351	0.100
432.100	-15.055	0.100
432.200	1.883	0.100
432.300	-5.238	0.100
432.400	0.752	0.100
432.500	-4.549	0.100
432.600	-23.744	0.100
432.700	-18.701	0.100
432.800	-2.191	0.100
432.900	-13.885	0.100
433.000	0.183	0.100
433.100	-8.853	0.100
433.200	-6.868	0.100
433.300	5.519	0.100
433.400	-1.361	0.100
433.500	-7.858	0.100
433.600	-10.105	0.100
433.700	-5.516	0.100
433.800	-3.251	0.100
433.900	-8.050	0.100
434.000	-13.407	0.100
434.100	-0.034	0.100
434.200	-7.583	0.100
434.300	-4.191	0.100
434.400	-6.831	0.100
434.500	-9.891	0.100
434.600	-6.163	0.100
434.700	-10.152	0.100
434.800	-14.380	0.100
434.900	-2.388	0.100
435.000	-10.928	0.100
435.100	-12.188	0.100
435.200	-6.262	0.100
435.300	-1.627	0.100
435.400	-5.959	0.100
435.500	-11.790	0.100
435.600	-12.906	0.100
435.700	-13.403	0.100
435.800	-1.030	0.100
435.900	-9.963	0.100
436.000	-7.669	0.100
436.100	-6.659	0.100
436.200	-16.723	0.100
436.300	-6.028	0.100
436.400	-2.655	0.100
436.500	-8.288	0.100
436.600	-11.585	0.100
436.700	-4.763	0.100
436.800	-9.219	0.100
436.900	6.949	0.100
437.000	-8.353	0.100
437.100	-9.976	0.100
437.200	-9.284	0.100
437.300	-7.761	0.100
437.400	-3.936	0.100
437.500	-4.952	0.100
437.600	-13.535	0.100
437.700	-4.860	0.100
437.800	-13.784	0.100
437.900	-13.581	0.100
438.000	-5.068	0.100
438.100	-5.465	0.100
438.200	-2.946	0.100
438.300	-5.764	0.100
438.400	-11.142	0.100
438.500	10.223	0.100
438.600	-6.340	0.100
438.700	-7.656	0.100
438.800	-4.618	0.100
438.900	-9.594	0.100
439.000	-13.438	0.100
439.100	0.708	0.100
439.200	-2.777	0.100
439.300	-4.245	0.100
439.400	-8.889	0.100
439.500	-3.925	0.100
439.600	-7.776	0.100
439.700	-8.970	0.100
439.800	-3.828	0.100
439.900	-0.166	0.100
440.000	-9.880	0.100
440.100	-8.133	0.100
440.200	-4.409	0.100
440.300	-3.768	0.100
440.400	-11.164	0.100
440.500	-13.888	0.100
440.600	-7.388	0.100
440.700	-9.455	0.100
440.800	-7.372	0.100
440.900	0.113	0.100
441.000	-12.568	0.100
441.100	-0.072	0.100
441.200	-13.488	0.100
441.300	-9.735	0.100
441.400	-6.052	0.100
441.500	-5.183	0.100
441.600	-24.062	0.100
441.700	-11.560	0.100
441.800	-9.971	0.100
441.900	-4.709	0.100
442.000	-2.329	0.100
442.100	-2.527	0.100
442.200	-12.782	0.100
442.300	-15.983	0.100
442.400	-10.472	0.100
442.500	-0.669	0.100
442.600	-10.550	0.100
442.700	-2.774	0.100
442.800	-6.101	0.100
442.900	-10.840	0.100
443.000	-11.686	0.100
443.100	-6.250	0.100
443.200	-7.930	0.100
443.300	-12.098	0.100
443.400	-12.291	0.100
443.500	-0.647	0.100
443.600	-3.154	0.100
443.700	-12.999	0.100
443.800	-4.186	0.100
443.900	-6.741	0.100
444.000	-2.873	0.100
444.100	-1.718	0.100
444.200	-8.566	0.100
444.300	-3.911	0.100
444.400	-12.386	0.100
444.500	-0.773	0.100
444.600	-6.236	0.100
444.700	-7.302	0.100
444.800	0.121	0.100
444.900	-8.699	0.100
445.000	-18.890	0.100
445.100	-9.451	0.100
445.200	-0.911	0.100
445.300	-8.846	0.100
445.400	-0.076	0.100
445.500	-5.725	0.100
445.600	-8.423	0.100
445.700	-5.335	0.100
445.800	-9.408	0.100
445.900	-6.591	0.100
446.000	1.199	0.100
446.100	-9.333	0.100
446.200	-13.327	0.100
446.300	-4.351	0.100
446.400	-15.024	0.100
446.500	1.185	0.100
446.600	-7.527	0.100
446.700	-6.751	0.100
446.800	-4.080	0.100
446.900	1.694	0.100
447.000	-1.330	0.100
447.100	-14.808	0.100
447.200	-5.036	0.100
447.300	-1.007	0.100
447.400	-3.231	0.100
447.500	-8.433	0.100
447.600	-5.785	0.100
447.700	-6.942	0.100
447.800	-13.168	0.100
447.900	-7.996	0.100
448.000	-7.792	0.100
448.100	0.194	0.100
448.200	-8.908	0.100
448.300	-2.111	0.100
448.400	-9.805	0.100
448.500	-13.877	0.100
448.600	-7.446	0.100
448.700	-5.281	0.100
448.800	-9.904	0.100
448.900	-14.027	0.100
449.000	2.822	0.100
449.100	-5.676	0.100
449.200	-10.416	0.100
449.300	-6.815	0.100
449.400	-12.868	0.100
449.500	-11.812	0.100
449.600	-6.851	0.100
449.700	-10.616	0.100
449.800	-6.223	0.100
449.900	-7.781	0.100
450.000	-11.550	0.100
450.100	-13.702	0.100
450.200	-2.275	0.100
450.300	-19.537	0.100
450.400	-11.355	0.100
450.500	-2.372	0.100
450.600	-8.683	0.100
450.700	-7.374	0.100
450.800	-4.724	0.100
450.900	-3.908	0.100
451.000	-12.283	0.100
451.100	-2.086	0.100
451.200	-9.609	0.100
451.300	-10.222	0.100
451.400	4.964	0.100
451.500	-5.367	0.100
451.600	-13.287	0.100
451.700	-11.549	0.100
451.800	1.019	0.100
451.900	-17.392	0.100
452.000	-14.981	0.100
452.100	-5.592	0.100
452.200	6.723	0.100
452.300	1.753	0.100
452.400	6.647	0.100
452.500	-16.126	0.100
452.600	-11.245	0.100
452.700	-7.061	0.100
452.800	-12.807	0.100
452.900	-10.244	0.100
453.000	-2.118	0.100
453.100	0.217	0.100
453.200	-5.650	0.100
453.300	-11.444	0.100
453.400	-4.410	0.100
453.500	-2.965	0.100
453.600	-3.275	0.100
453.700	-17.639	0.100
453.800	-10.097	0.100
453.900	-12.710	0.100
454.000	-1.678	0.100
454.100	-7.666	0.100
454.200	-11.163	0.100
454.300	-15.818	0.100
454.400	-18.464	0.100
454.500	0.422	0.100
454.600	-5.871	0.100
454.700	0.435	0.100
454.800	-10.974	0.100
454.900	-16.286	0.100
455.000	-9.523	0.100
455.100	-3.799	0.100
455.200	-7.940	0.100
455.300	-6.900	0.100
455.400	-4.404	0.100
455.500	-6.436	0.100
455.600	-7.320	0.100
455.700	-7.898	0.100
455.800	-1.782	0.100
455.900	-5.821	0.100
456.000	3.280	0.100
456.100	-10.095	0.100
456.200	-9.074	0.100
456.300	-5.137	0.100
456.400	-5.695	0.100
456.500	-5.019	0.100
456.600	4.639	0.100
456.700	-11.003	0.100
456.800	-26.163	0.100
456.900	-3.793	0.100
457.000	-7.278	0.100
457.100	-9.089	0.100
457.200	-8.573	0.100
457.300	3.592	0.100
457.400	-10.760	0.100
457.500	-14.558	0.100
457.600	-11.650	0.100
457.700	-7.872	0.100
457.800	-8.720	0.100
457.900	-13.076	0.100
458.000	-24.834	0.100
458.100	-9.202	0.100
458.200	-2.343	0.100
458.300	-14.817	0.100
458.400	-5.698	0.100
458.500	-8.208	0.100
458.600	-3.581	0.100
458.700	-13.496	0.100
458.800	-8.111	0.100
458.900	-15.452	0.100
459.000	-7.551	0.100
459.100	-0.104	0.100
459.200	-10.987	0.100
459.300	-7.658	0.100
459.400	-0.296	0.100
459.500	1.747	0.100
459.600	-9.357	0.100
459.700	-7.436	0.100
459.800	-10.260	0.100
459.900	-7.688	0.100
460.000	-5.791	0.100
460.100	-7.515	0.100
460.200	5.136	0.100
460.300	-0.911	0.100
460.400	-3.914	0.100
460.500	-1.568	0.100
460.600	-21.990	0.100
460.700	-10.506	0.100
460.800	-2.573	0.100
460.900	-1.898	0.100
461.000	-0.124	0.100
461.100	-15.137	0.100
461.200	-5.427	0.100
461.300	0.340	0.100
461.400	-2.962	0.100
461.500	-5.905	0.100
461.600	-4.459	0.100
461.700	-11.096	0.100
461.800	-19.524	0.100
461.900	-8.942	0.100
462.000	-6.229	0.100
462.100	-2.486	0.100
462.200	-2.227	0.100
462.300	-13.533	0.100
462.400	-4.592	0.100
462.500	-5.265	0.100
462.600	-7.080	0.100
462.700	-7.617	0.100
462.800	-4.101	0.100
462.900	-10.731	0.100
463.000	-15.408	0.100
463.100	-17.117	0.100
463.200	-4.638	0.100
463.300	-5.876	0.100
463.400	-16.763	0.100
463.500	-12.560	0.100
463.600	-3.161	0.100
463.700	-7.509	0.100
463.800	-5.635	0.100
463.900	-12.829	0.100
464.000	-5.937	0.100
464.100	-1.097	0.100
464.200	2.523	0.100
464.300	-9.115	0.100
464.400	-7.213	0.100
464.500	-7.345	0.100
464.600	-1.008	0.100
464.700	-10.550	0.100
464.800	-12.935	0.100
464.900	-14.293	0.100
465.000	-3.342	0.100
465.100	-9.816	0.100
465.200	-16.915	0.100
465.300	-2.782	0.100
465.400	0.322	0.100
465.500	-10.206	0.100
465.600	-16.655	0.100
465.700	-0.809	0.100
465.800	-3.149	0.100
465.900	-1.002	0.100
466.000	-7.931	0.100
466.100	-0.075	0.100
466.200	-6.333	0.100
466.300	-13.098	0.100
466.400	-13.823	0.100
466.500	-9.134	0.100
466.600	-6.985	0.100
466.700	-13.998	0.100
466.800	-12.328	0.100
466.900	-0.067	0.100
467.000	-9.250	0.100
467.100	-6.829	0.100
467.200	-3.743	0.100
467.300	-4.670	0.100
467.400	-13.268	0.100
467.500	-12.257	0.100
467.600	-5.981	0.100
467.700	-4.706	0.100
467.800	-4.615	0.100
467.900	-4.360	0.100
468.000	-8.674	0.100
468.100	-8.525	0.100
468.200	-12.847	0.100
468.300	-1.665	0.100
468.400	-0.075	0.100
468.500	2.339	0.100
468.600	-6.260	0.100
468.700	3.692	0.100
468.800	1.791	0.100
468.900	-5.617	0.100
469.000	-15.416	0.100
469.100	-5.403	0.100
469.200	-10.314	0.100
469.300	-11.298	0.100
469.400	-0.120	0.100
469.500	-8.720	0.100
469.600	-9.512	0.100
469.700	-4.630	0.100
469.800	1.587	0.100
469.900	-10.640	0.100
470.000	-12.382	0.100
470.100	-3.123	0.100
470.200	-11.454	0.100
470.300	-13.806	0.100
470.400	-9.537	0.100
470.500	0.104	0.100
470.600	3.059	0.100
470.700	-3.456	0.100
470.800	3.527	0.100
470.900	-2.397	0.100
471.000	-0.481	0.100
471.100	-3.876	0.100
471.200	-0.748	0.100
471.300	-18.890	0.100
471.400	-15.354	0.100
471.500	-17.611	0.100
471.600	-6.621	0.100
471.700	-6.977	0.100
471.800	-3.345	0.100
471.900	3.452	0.100
472.000	-4.921	0.100
472.100	-2.800	0.100
472.200	-10.116	0.100
472.300	-7.699	0.100
472.400	-6.770	0.100
472.500	-5.683	0.100
472.600	-19.128	0.100
472.700	-7.739	0.100
472.800	-4.835	0.100
472.900	-6.158	0.100
473.000	-9.075	0.100
473.100	-12.675	0.100
473.200	-6.705	0.100
473.300	-8.075	0.100
473.400	-13.741	0.100
473.500	7.910	0.100
473.600	-9.137	0.100
473.700	-5.178	0.100
473.800	1.466	0.100
473.900	-8.929	0.100
474.000	-4.484	0.100
474.100	-15.896	0.100
474.200	-7.140	0.100
474.300	-11.538	0.100
474.400	-7.182	0.100
474.500	-3.501	0.100
474.600	-1.299	0.100
474.700	-3.141	0.100
474.800	-14.306	0.100
474.900	-4.446	0.100
475.000	-5.048	0.100
475.100	1.669	0.100
475.200	-5.830	0.100
475.300	-8.795	0.100
475.400	1.485	0.100
475.500	-15.779	0.100
475.600	-5.330	0.100
475.700	-19.780	0.100
475.800	-1.013	0.100
475.900	-11.908	0.100
476.000	-15.267	0.100
476.100	-6.946	0.100
476.200	-9.304	0.100
476.300	-4.506	0.100
476.400	-19.070	0.100
476.500	-13.449	0.100
476.600	9.928	0.100
476.700	-5.463	0.100
476.800	9.941	0.100
476.900	1.817	0.100
477.000	-0.987	0.100
477.100	-4.085	0.100
477.200	-17.854	0.100
477.300	-11.902	0.100
477.400	-1.011	0.100
477.500	-5.932	0.100
477.600	-10.912	0.100
477.700	-13.725	0.100
477.800	-5.660	0.100
477.900	-9.521	0.100
478.000	-7.629	0.100
478.100	1.138	0.100
478.200	2.049	0.100
478.300	-6.989	0.100
478.400	-11.770	0.100
478.500	-5.650	0.100
478.600	-11.364	0.100
478.700	-9.031	0.100
478.800	-4.498	0.100
478.900	-8.256	0.100
479.000	-1.703	0.100
479.100	-4.110	0.100
479.200	-9.702	0.100
479.300	-9.026	0.100
479.400	-8.242	0.100
479.500	-18.856	0.100
479.600	-12.007	0.100
479.700	-11.260	0.100
479.800	1.905	0.100
479.900	-8.107	0.100
480.000	-5.514	0.100
480.100	-5.565	0.100
480.200	-5.182	0.100
480.300	-4.056	0.100
480.400	4.519	0.100
480.500	-0.011	0.100
480.600	-6.403	0.100
480.700	-4.868	0.100
480.800	-4.618	0.100
480.900	-14.314	0.100
481.000	-9.903	0.100
481.100	0.021	0.100
481.200	1.017	0.100
481.300	-7.151	0.100
481.400	-0.752	0.100
481.500	-9.040	0.100
481.600	-10.821	0.100
481.700	-3.892	0.100
481.800	2.940	0.100
481.900	5.177	0.100
482.000	-1.959	0.100
482.100	-7.010	0.100
482.200	-6.841	0.100
482.300	3.537	0.100
482.400	2.725	0.100
482.500	3.476	0.100
482.600	0.464	0.100
482.700	-3.301	0.100
482.800	3.381	0.100
482.900	3.049	0.100
483.000	1.900	0.100
483.100	-0.905	0.100
483.200	-2.798	0.100
483.300	-8.026	0.100
483.400	-4.796	0.100
483.500	2.785	0.100
483.600	1.096	0.100
483.700	-11.247	0.100
483.800	0.542	0.100
483.900	15.136	0.100
484.000	4.615	0.100
484.100	-2.032	0.100
484.200	1.092	0.100
484.300	7.222	0.100
484.400	1.358	0.100
484.500	-0.125	0.100
484.600	-0.119	0.100
484.700	-2.272	0.100
484.800	4.091	0.100
484.900	-7.973	0.100
485.000	5.032	0.100
485.100	-2.390	0.100
485.200	7.862	0.100
485.300	3.733	0.100
485.400	-0.752	0.100
485.500	1.175	0.100
485.600	5.827	0.100
485.700	-0.624	0.100
485.800	5.410	0.100
485.900	3.267	0.100
486.000	0.649	0.100
486.100	6.321	0.100
486.200	-15.467	0.100
486.300	7.917	0.100
486.400	9.739	0.100
486.500	6.882	0.100
486.600	-9.886	0.100
486.700	-2.520	0.100
486.800	2.903	0.100
486.900	0.831	0.100
487.000	3.769	0.100
487.100	0.286	0.100
487.200	3.405	0.100
487.300	0.755	0.100
487.400	-1.622	0.100
487.500	8.803	0.100
487.600	-4.828	0.100
487.700	-1.849	0.100
487.800	4.069	0.100
487.900	-0.361	0.100
488.000	8.767	0.100
488.100	3.598	0.100
488.200	3.160	0.100
488.300	-3.167	0.100
488.400	-3.922	0.100
488.500	-8.958	0.100
488.600	6.963	0.100
488.700	10.803	0.100
488.800	13.712	0.100
488.900	1.918	0.100
489.000	4.899	0.100
489.100	0.821	0.100
489.200	6.933	0.100
489.300	-3.475	0.100
489.400	2.614	0.100
489.500	4.578	0.100
489.600	-1.462	0.100
489.700	12.660	0.100
489.800	-5.178	0.100
489.900	6.261	0.100
490.000	16.850	0.100
490.100	9.627	0.100
490.200	4.872	0.100
490.300	1.774	0.100
490.400	9.962	0.100
490.500	-0.735	0.100
490.600	-4.563	0.100
490.700	8.464	0.100
490.800	8.226	0.100
490.900	2.871	0.100
491.000	14.053	0.100
491.100	-6.891	0.100
491.200	4.329	0.100
491.300	3.509	0.100
491.400	7.931	0.100
491.500	6.361	0.100
491.600	-3.741	0.100
491.700	0.983	0.100
491.800	-1.102	0.100
491.900	7.802	0.100
492.000	10.001	0.100
492.100	-4.400	0.100
492.200	1.268	0.100
492.300	16.605	0.100
492.400	13.872	0.100
492.500	4.202	0.100
492.600	10.849	0.100
492.700	10.933	0.100
492.800	3.945	0.100
492.900	3.572	0.100
493.000	8.485	0.100
493.100	7.548	0.100
493.200	-2.578	0.100
493.300	1.723	0.100
493.400	3.417	0.100
493.500	11.075	0.100
493.600	8.021	0.100
493.700	7.261	0.100
493.800	-1.537	0.100
493.900	1.160	0.100
494.000	8.310	0.100
494.100	12.772	0.100
494.200	10.986	0.100
494.300	12.256	0.100
494.400	10.914	0.100
494.500	8.346	0.100
494.600	0.351	0.100
494.700	10.364	0.100
494.800	11.874	0.100
494.900	10.008	0.100
495.000	3.910	0.100
495.100	7.351	0.100
495.200	4.045	0.100
495.300	3.952	0.100
495.400	-4.264	0.100
495.500	6.735	0.100
495.600	12.869	0.100
495.700	12.277	0.100
495.800	16.202	0.100
495.900	2.981	0.100
496.000	-2.097	0.100
496.100	-0.244	0.100
496.200	7.514	0.100
496.300	3.362	0.100
496.400	4.820	0.100
496.500	12.996	0.100
496.600	9.113	0.100
496.700	11.862	0.100
496.800	12.887	0.100
496.900	21.731	0.100
497.000	6.592	0.100
497.100	13.578	0.100
497.200	6.214	0.100
497.300	11.247	0.100
497.400	8.334	0.100
497.500	7.230	0.100
497.600	0.006	0.100
497.700	15.778	0.100
497.800	15.401	0.100
497.900	12.672	0.100
498.000	12.738	0.100
498.100	6.975	0.100
498.200	12.256	0.100
498.300	-6.159	0.100
498.400	-6.655	0.100
498.500	1.804	0.100
498.600	19.716	0.100
498.700	12.229	0.100
498.800	5.126	0.100
498.900	5.993	0.100
499.000	10.773	0.100
499.100	13.957	0.100
499.200	10.573	0.100
499.300	12.434	0.100
499.400	4.394	0.100
499.500	12.120	0.100
499.600	6.034	0.100
499.700	14.620	0.100
499.800	4.424	0.100
499.900	8.042	0.100
500.000	15.293	0.100
500.100	13.180	0.100
500.200	8.144	0.100
500.300	5.711	0.100
500.400	11.850	0.100
500.500	12.291	0.100
500.600	6.418	0.100
500.700	16.198	0.100
500.800	14.515	0.100
500.900	8.247	0.100
501.000	13.802	0.100
501.100	10.495	0.100
501.200	6.380	0.100
501.300	15.514	0.100
501.400	6.378	0.100
501.500	15.793	0.100
501.600	8.092	0.100
501.700	10.087	0.100
501.800	15.375	0.100
501.900	15.911	0.100
502.000	10.542	0.100
502.100	10.901	0.100
502.200	16.265	0.100
502.300	16.048	0.100
502.400	13.781	0.100
502.500	11.184	0.100
502.600	1.701	0.100
502.700	1.614	0.100
502.800	5.142	0.100
502.900	20.899	0.100
503.000	9.306	0.100
503.100	14.270	0.100
503.200	11.153	0.100
503.300	13.273	0.100
503.400	12.003	0.100
503.500	12.402	0.100
503.600	11.632	0.100
503.700	14.820	0.100
503.800	9.899	0.100
503.900	7.485	0.100
504.000	6.481	0.100
504.100	7.597	0.100
504.200	7.300	0.100
504.300	20.815	0.100
504.400	23.197	0.100
504.500	22.628	0.100
504.600	9.110	0.100
504.700	14.234	0.100
504.800	11.407	0.100
504.900	7.987	0.100
505.000	12.010	0.100
505.100	15.654	0.100
505.200	25.075	0.100
505.300	12.227	0.100
505.400	12.232	0.100
505.500	14.438	0.100
505.600	14.724	0.100
505.700	4.816	0.100
505.800	20.730	0.100
505.900	15.626	0.100
506.000	8.172	0.100
506.100	16.812	0.100
506.200	22.604	0.100
506.300	18.334	0.100
506.400	16.425	0.100
506.500	14.348	0.100
506.600	6.608	0.100
506.700	12.204	0.100
506.800	19.254	0.100
506.900	3.497	0.100
507.000	15.361	0.100
507.100	19.259	0.100
507.200	14.216	0.100
507.300	22.264	0.100
507.400	19.421	0.100
507.500	14.298	0.100
507.600	15.140	0.100
507.700	13.241	0.100
507.800	22.566	0.100
507.900	12.970	0.100
508.000	11.486	0.100
508.100	18.185	0.100
508.200	10.523	0.100
508.300	17.873	0.100
508.400	5.014	0.100
508.500	10.726	0.100
508.600	14.097	0.100
508.700	5.505	0.100
508.800	21.822	0.100
508.900	16.849	0.100
509.000	20.476	0.100
509.100	19.509	0.100
509.200	18.331	0.100
509.300	19.434	0.100
509.400	12.707	0.100
509.500	12.101	0.100
509.600	22.567	0.100
509.700	9.203	0.100
509.800	17.337	0.100
509.900	5.037	0.100
510.000	17.938	0.100
510.100	5.732	0.100
510.200	20.821	0.100
510.300	13.132	0.100
510.400	14.936	0.100
510.500	12.555	0.100
510.600	10.495	0.100
510.700	19.022	0.100
510.800	15.386	0.100
510.900	13.211	0.100
511.000	14.795	0.100
511.100	13.565	0.100
511.200	15.661	0.100
511.300	14.122	0.100
511.400	8.415	0.100
511.500	9.200	0.100
511.600	16.339	0.100
511.700	5.932	0.100
511.800	16.295	0.100
511.900	17.388	0.100
512.000	15.765	0.100
512.100	18.812	0.100
512.200	15.173	0.100
512.300	22.437	0.100
512.400	18.957	0.100
512.500	24.696	0.100
512.600	27.217	0.100
512.700	20.213	0.100
512.800	18.739	0.100
512.900	8.663	0.100
513.000	-0.203	0.100
513.100	30.667	0.100
513.200	21.905	0.100
513.300	20.480	0.100
513.400	14.256	0.100
513.500	14.131	0.100
513.600	24.322	0.100
513.700	13.575	0.100
513.800	10.454	0.100
513.900	15.781	0.100
514.000	16.222	0.100
514.100	4.851	0.100
514.200	24.446	0.100
514.300	23.402	0.100
514.400	26.563	0.100
514.500	22.010	0.100
514.600	14.284	0.100
514.700	16.842	0.100
514.800	16.021	0.100
514.900	20.243	0.100
515.000	8.767	0.100
515.100	14.861	0.100
515.200	12.001	0.100
515.300	21.004	0.100
515.400	13.049	0.100
515.500	5.822	0.100
515.600	8.942	0.100
515.700	24.741	0.100
515.800	15.636	0.100
515.900	25.934	0.100
516.000	18.444	0.100
516.100	15.709	0.100
516.200	17.919	0.100
516.300	18.343	0.100
516.400	11.381	0.100
516.500	15.366	0.100
516.600	19.943	0.100
516.700	22.475	0.100
516.800	14.122	0.100
516.900	13.697	0.100
517.000	25.657	0.100
517.100	18.013	0.100
517.200	13.835	0.100
517.300	19.198	0.100
517.400	18.172	0.100
517.500	18.434	0.100
517.600	14.802	0.100
517.700	18.163	0.100
517.800	9.268	0.100
517.900	18.929	0.100
518.000	13.861	0.100
518.100	24.035	0.100
518.200	21.327	0.100
518.300	7.824	0.100
518.400	7.349	0.100
518.500	29.782	0.100
518.600	24.171	0.100
518.700	20.640	0.100
518.800	17.969	0.100
518.900	20.695	0.100
519.000	15.774	0.100
519.100	18.994	0.100
519.200	18.506	0.100
519.300	16.857	0.100
519.400	21.300	0.100
519.500	28.657	0.100
519.600	23.585	0.100
519.700	12.564	0.100
519.800	21.837	0.100
519.900	15.466	0.100
520.000	16.356	0.100
520.100	19.697	0.100
520.200	22.777	0.100
520.300	23.804	0.100
520.400	21.761	0.100
520.500	16.885	0.100
520.600	15.561	0.100
520.700	22.604	0.100
520.800	23.144	0.100
520.900	21.854	0.100
521.000	6.732	0.100
521.100	20.788	0.100
521.200	21.968	0.100
521.300	26.904	0.100
521.400	18.854	0.100
521.500	15.967	0.100
521.600	18.949	0.100
521.700	15.837	0.100
521.800	19.165	0.100
521.900	18.310	0.100
522.000	13.346	0.100
522.100	19.856	0.100
522.200	22.819	0.100
522.300	19.975	0.100
522.400	21.334	0.100
522.500	18.511	0.100
522.600	11.394	0.100
522.700	19.990	0.100
522.800	18.673	0.100
522.900	20.213	0.100
523.000	23.999	0.100
523.100	13.236	0.100
523.200	17.649	0.100
523.300	15.892	0.100
523.400	16.977	0.100
523.500	24.008	0.100
523.600	16.334	0.100
523.700	19.998	0.100
523.800	25.864	0.100
523.900	29.923	0.100
524.000	25.887	0.100
524.100	8.296	0.100
524.200	18.982	0.100
524.300	20.258	0.100
524.400	20.439	0.100
524.500	20.596	0.100
524.600	14.255	0.100
524.700	20.168	0.100
524.800	16.206	0.100
524.900	19.177	0.100
525.000	25.364	0.100
525.100	23.091	0.100
525.200	15.817	0.100
525.300	19.886	0.100
525.400	20.260	0.100
525.500	14.285	0.100
525.600	25.951	0.100
525.700	25.165	0.100
525.800	16.536	0.100
525.900	20.715	0.100
526.000	21.592	0.100
526.100	18.559	0.100
526.200	16.230	0.100
526.300	18.424	0.100
526.400	12.066	0.100
526.500	23.828	0.100
526.600	20.261	0.100
526.700	22.515	0.100
526.800	19.243	0.100
526.900	21.716	0.100
527.000	18.586	0.100
527.100	4.995	0.100
527.200	15.853	0.100
527.300	18.702	0.100
527.400	24.547	0.100
527.500	19.295	0.100
527.600	11.088	0.100
527.700	7.411	0.100
527.800	16.800	0.100
527.900	21.310	0.100
528.000	25.744	0.100
528.100	15.391	0.100
528.200	13.436	0.100
528.300	15.203	0.100
528.400	16.529	0.100
528.500	21.509	0.100
528.600	19.124	0.100
528.700	21.652	0.100
528.800	22.413	0.100
528.900	14.523	0.100
529.000	18.275	0.100
529.100	16.018	0.100
529.200	18.435	0.100
529.300	10.476	0.100
529.400	22.430	0.100
529.500	19.862	0.100
529.600	29.293	0.100
529.700	35.409	0.100
529.800	20.834	0.100
529.900	13.018	0.100
530.000	26.190	0.100
530.100	21.310	0.100
530.200	16.051	0.100
530.300	15.193	0.100
530.400	27.794	0.100
530.500	20.614	0.100
530.600	12.094	0.100
530.700	26.552	0.100
530.800	23.917	0.100
530.900	9.303	0.100
531.000	10.519	0.100
531.100	15.600	0.100
531.200	25.509	0.100
531.300	26.120	0.100
531.400	20.093	0.100
531.500	27.264	0.100
531.600	16.251	0.100
531.700	26.050	0.100
531.800	14.504	0.100
531.900	15.419	0.100
532.000	8.838	0.100
532.100	24.278	0.100
532.200	28.254	0.100
532.300	10.882	0.100
532.400	18.099	0.100
532.500	24.127	0.100
532.600	17.226	0.100
532.700	10.454	0.100
532.800	15.407	0.100
532.900	26.465	0.100
533.000	22.427	0.100
533.100	26.069	0.100
533.200	24.095	0.100
533.300	23.598	0.100
533.400	18.540	0.100
533.500	19.970	0.100
533.600	28.451	0.100
533.700	25.593	0.100
533.800	14.663	0.100
533.900	3.475	0.100
534.000	17.482	0.100
534.100	19.238	0.100
534.200	24.752	0.100
534.300	29.394	0.100
534.400	12.286	0.100
534.500	22.519	0.100
534.600	20.940	0.100
534.700	18.552	0.100
534.800	21.567	0.100
534.900	13.399	0.100
535.000	19.449	0.100
535.100	20.170	0.100
535.200	7.992	0.100
535.300	22.008	0.100
535.400	20.571	0.100
535.500	22.388	0.100
535.600	26.368	0.100
535.700	24.331	0.100
535.800	15.912	0.100
535.900	24.269	0.100
536.000	20.320	0.100
536.100	26.745	0.100
536.200	21.300	0.100
536.300	16.517	0.100
536.400	13.963	0.100
536.500	20.229	0.100
536.600	23.794	0.100
536.700	25.153	0.100
536.800	23.217	0.100
536.900	22.835	0.100
537.000	21.500	0.100
537.100	20.857	0.100
537.200	13.409	0.100
537.300	21.348	0.100
537.400	19.152	0.100
537.500	17.652	0.100
537.600	19.195	0.100
537.700	30.242	0.100
537.800	26.156	0.100
537.900	10.623	0.100
538.000	3.293	0.100
538.100	28.096	0.100
538.200	17.062	0.100
538.300	37.745	0.100
538.400	16.795	0.100
538.500	32.092	0.100
538.600	18.973	0.100
538.700	21.239	0.100
538.800	27.060	0.100
538.900	15.215	0.100
539.000	6.334	0.100
539.100	18.756	0.100
539.200	18.325	0.100
539.300	31.796	0.100
539.400	16.805	0.100
539.500	25.008	0.100
539.600	25.530	0.100
539.700	15.082	0.100
539.800	26.419	0.100
539.900	10.423	0.100
540.000	17.705	0.100
540.100	23.757	0.100
540.200	20.661	0.100
540.300	16.649	0.100
540.400	27.435	0.100
540.500	27.587	0.100
540.600	10.036	0.100
540.700	18.042	0.100
540.800	15.140	0.100
540.900	14.124	0.100
541.000	21.423	0.100
541.100	20.861	0.100
541.200	16.473	0.100
541.300	23.370	0.100
541.400	14.262	0.100
541.500	29.285	0.100
541.600	18.313	0.100
541.700	17.534	0.100
541.800	10.495	0.100
541.900	19.532	0.100
542.000	26.390	0.100
542.100	19.317	0.100
542.200	24.512	0.100
542.300	17.356	0.100
542.400	22.737	0.100
542.500	26.809	0.100
542.600	22.724	0.100
542.700	25.265	0.100
542.800	27.335	0.100
542.900	12.394	0.100
543.000	7.392	0.100
543.100	6.035	0.100
543.200	7.844	0.100
543.300	23.607	0.100
543.400	23.196	0.100
543.500	16.255	0.100
543.600	15.941	0.100
543.700	17.491	0.100
543.800	7.538	0.100
543.900	12.587	0.100
544.000	13.214	0.100
544.100	20.829	0.100
544.200	17.389	0.100
544.300	5.224	0.100
544.400	-1.262	0.100
544.500	14.877	0.100
544.600	16.401	0.100
544.700	22.980	0.100
544.800	10.344	0.100
544.900	10.504	0.100
545.000	15.239	0.100
545.100	12.756	0.100
545.200	18.299	0.100
545.300	9.183	0.100
545.400	25.468	0.100
545.500	19.760	0.100
545.600	17.327	0.100
545.700	6.245	0.100
545.800	15.452	0.100
545.900	6.738	0.100
546.000	6.920	0.100
546.100	13.153	0.100
546.200	22.805	0.100
546.300	10.158	0.100
546.400	14.478	0.100
546.500	10.473	0.100
546.600	23.527	0.100
546.700	5.321	0.100
546.800	6.243	0.100
546.900	10.504	0.100
547.000	7.785	0.100
547.100	8.026	0.099
547.200	17.641	0.100
547.300	18.570	0.100
547.400	4.400	0.100
547.500	10.566	0.099
547.600	14.137	0.100
547.700	17.564	0.100
547.800	3.619	0.099
547.900	5.155	0.100
548.000	10.174	0.099
548.100	14.838	0.099
548.200	7.469	0.099
548.300	5.130	0.099
548.400	11.878	0.099
548.500	10.486	0.099
548.600	8.904	0.099
548.700	3.479	0.100
548.800	17.613	0.100
548.900	17.793	0.099
549.000	11.712	0.099
549.100	14.267	0.099
549.200	-2.981	0.100
549.300	4.672	0.099
549.400	7.081	0.100
549.500	15.404	0.099
549.600	9.542	0.099
549.700	18.514	0.099
549.800	12.128	0.099
549.900	15.839	0.100
550.000	5.703	0.099
550.100	5.824	0.099
550.200	11.152	0.100
550.300	10.963	0.099
550.400	11.218	0.100
550.500	7.523	0.099
550.600	11.847	0.099
550.700	11.708	0.100
550.800	5.970	0.099
550.900	10.892	0.099
551.000	3.567	0.100
551.100	15.452	0.099
551.200	16.805	0.099
551.300	-1.227	0.100
551.400	1.000	0.099
551.500	10.012	0.099
551.600	14.458	0.099
551.700	12.099	0.099
551.800	8.385	0.099
551.900	7.991	0.099
552.000	2.556	0.099
552.100	15.348	0.099
552.200	11.177	0.099
552.300	10.643	0.099
552.400	9.093	0.099
552.500	6.303	0.099
552.600	6.049	0.100
552.700	6.921	0.099
552.800	5.017	0.099
552.900	12.983	0.099
553.000	17.644	0.099
553.100	18.023	0.099
553.200	10.264	0.099
553.300	1.451	0.099
553.400	3.003	0.099
553.500	9.675	0.099
553.600	15.723	0.099
553.700	15.304	0.099
553.800	2.166	0.099
553.900	1.827	0.099
554.000	7.876	0.099
554.100	5.610	0.099
554.200	8.796	0.099
554.300	6.487	0.099
554.400	3.742	0.099
554.500	12.655	0.099
554.600	14.579	0.099
554.700	14.442	0.099
554.800	11.521	0.099
554.900	4.246	0.099
555.000	9.266	0.099
555.100	-6.155	0.099
555.200	-2.537	0.099
555.300	-6.507	0.099
555.400	14.768	0.099
555.500	8.204	0.099
555.600	11.595	0.099
555.700	5.302	0.099
555.800	10.128	0.099
555.900	11.887	0.099
556.000	4.255	0.099
556.100	1.297	0.099
556.200	7.526	0.099
556.300	9.334	0.099
556.400	13.398	0.099
556.500	10.871	0.099
556.600	13.315	0.099
556.700	6.632	0.099
556.800	-2.813	0.099
556.900	-5.594	0.099
557.000	12.007	0.099
557.100	9.823	0.099
557.200	10.881	0.099
557.300	0.921	0.099
557.400	-7.140	0.099
557.500	-1.456	0.099
557.600	7.863	0.099
557.700	5.792	0.099
557.800	-0.539	0.099
557.900	4.191	0.099
558.000	7.422	0.099
558.100	4.307	0.099
558.200	11.221	0.099
558.300	12.200	0.099
558.400	-4.043	0.099
558.500	15.643	0.099
558.600	3.942	0.099
558.700	4.026	0.099
558.800	9.986	0.099
558.900	12.134	0.099
559.000	3.719	0.099
559.100	0.608	0.099
559.200	-9.860	0.099
559.300	2.218	0.099
559.400	14.391	0.099
559.500	5.183	0.099
559.600	1.126	0.099
559.700	5.437	0.099
559.800	3.736	0.099
559.900	8.562	0.099
560.000	-3.362	0.099
560.100	7.508	0.099
560.200	9.074	0.099
560.300	6.828	0.099
560.400	-0.787	0.099
560.500	2.062	0.099
560.600	4.758	0.099
560.700	5.784	0.099
560.800	3.707	0.099
560.900	0.295	0.099
561.000	0.635	0.099
561.100	-3.479	0.099
561.200	-1.903	0.099
561.300	1.416	0.099
561.400	1.195	0.099
561.500	-2.832	0.099
561.600	9.472	0.099
561.700	1.959	0.099
561.800	-0.764	0.099
561.900	-0.757	0.099
562.000	4.860	0.099
562.100	11.911	0.099
562.200	2.047	0.099
562.300	2.779	0.099
562.400	0.492	0.099
562.500	6.556	0.099
562.600	10.002	0.099
562.700	-1.986	0.099
562.800	1.951	0.099
562.900	7.208	0.099
563.000	4.338	0.099
563.100	-3.798	0.099
563.200	-2.870	0.099
563.300	-6.023	0.099
563.400	-6.494	0.099
563.500	5.725	0.099
563.600	4.800	0.099
563.700	9.202	0.099
563.800	5.852	0.099
563.900	1.541	0.099
564.000	0.810	0.099
564.100	6.363	0.099
564.200	-12.528	0.099
564.300	1.978	0.099
564.400	3.654	0.099
564.500	2.324	0.099
564.600	5.226	0.099
564.700	1.621	0.099
564.800	-1.474	0.099
564.900	-3.635	0.099
565.000	5.609	0.099
565.100	12.792	0.099
565.200	-13.869	0.099
565.300	-7.089	0.099
565.400	13.577	0.099
565.500	8.478	0.099
565.600	-1.667	0.099
565.700	-2.891	0.099
565.800	7.512	0.099
565.900	9.609	0.099
566.000	2.980	0.099
566.100	5.609	0.099
566.200	-3.057	0.099
566.300	-3.797	0.099
566.400	5.679	0.099
566.500	3.927	0.099
566.600	0.221	0.099
566.700	-12.509	0.099
566.800	0.722	0.099
566.900	-2.633	0.099
567.000	-0.300	0.099
567.100	0.112	0.099
567.200	-4.665	0.099
567.300	-3.160	0.099
567.400	-3.264	0.099
567.500	0.993	0.099
567.600	6.103	0.099
567.700	-1.094	0.099
567.800	-0.921	0.099
567.900	5.602	0.099
568.000	-10.479	0.099
568.100	1.018	0.099
568.200	-5.004	0.099
568.300	1.324	0.099
568.400	5.785	0.099
568.500	-6.479	0.099
568.600	-7.770	0.099
568.700	4.951	0.099
568.800	5.145	0.099
568.900	-4.894	0.099
569.000	-5.438	0.099
569.100	-8.142	0.099
569.200	3.667	0.099
569.300	10.469	0.099
569.400	-3.822	0.099
569.500	-11.937	0.099
569.600	-12.401	0.099
569.700	4.442	0.099
569.800	-0.773	0.099
569.900	8.732	0.099
570.000	-0.670	0.099
570.100	2.086	0.099
570.200	-5.459	0.099
570.300	4.948	0.099
570.400	4.830	0.099
570.500	-7.472	0.099
570.600	-3.426	0.099
570.700	-1.344	0.099
570.800	-6.337	0.099
570.900	-11.717	0.099
571.000	1.605	0.099
571.100	0.744	0.099
571.200	5.081	0.099
571.300	8.399	0.099
571.400	0.672	0.099
571.500	9.119	0.099
571.600	4.620	0.099
571.700	-2.684	0.099
571.800	5.509	0.099
571.900	-22.644	0.099
572.000	-10.811	0.099
572.100	-11.227	0.099
572.200	-7.951	0.099
572.300	-9.070	0.099
572.400	-8.473	0.099
572.500	-3.699	0.099
572.600	4.240	0.099
572.700	13.612	0.099
572.800	-8.461	0.099
572.900	0.145	0.099
573.000	1.623	0.099
573.100	-3.949	0.099
573.200	-9.746	0.099
573.300	-1.188	0.099
573.400	-13.333	0.099
573.500	-22.233	0.099
573.600	-2.540	0.099
573.700	4.304	0.099
573.800	4.799	0.099
573.900	-1.036	0.099
574.000	-4.187	0.099
574.100	-0.502	0.099
574.200	-5.324	0.099
574.300	-6.612	0.099
574.400	-12.396	0.099
574.500	-1.826	0.099
574.600	1.595	0.099
574.700	-3.570	0.099
574.800	10.658	0.099
574.900	-4.573	0.099
575.000	7.816	0.099
575.100	-1.387	0.099
575.200	-3.157	0.099
575.300	-3.116	0.099
575.400	3.975	0.099
575.500	-11.910	0.099
575.600	-17.055	0.099
575.700	-4.403	0.099
575.800	-9.047	0.099
575.900	-4.509	0.099
576.000	4.624	0.099
576.100	-2.389	0.099
576.200	-8.701	0.099
576.300	-6.511	0.099
576.400	-14.535	0.099
576.500	-8.113	0.099
576.600	0.324	0.099
576.700	-8.649	0.099
576.800	4.848	0.099
576.900	2.523	0.099
577.000	-0.651	0.099
577.100	-12.239	0.099
577.200	-5.146	0.099
577.300	0.245	0.099
577.400	-5.816	0.099
577.500	-7.209	0.099
577.600	-15.973	0.099
577.700	-7.815	0.099
577.800	-14.574	0.099
577.900	-6.265	0.099
578.000	-4.451	0.099
578.100	3.934	0.099
578.200	-3.955	0.099
578.300	-2.706	0.099
578.400	6.927	0.099
578.500	1.994	0.099
578.600	-18.500	0.099
578.700	-9.049	0.099
578.800	-7.313	0.099
578.900	-4.564	0.099
579.000	-8.397	0.099
579.100	-6.251	0.099
579.200	-3.971	0.099
579.300	-3.817	0.099
579.400	-1.361	0.099
579.500	-3.415	0.099
579.600	-1.339	0.099
579.700	-0.141	0.099
579.800	-11.190	0.099
579.900	-7.170	0.099
580.000	-6.150	0.099
580.100	-1.099	0.099
580.200	4.046	0.099
580.300	-6.132	0.099
580.400	-11.394	0.099
580.500	-1.969	0.099
580.600	-7.670	0.099
580.700	-1.302	0.099
580.800	-0.440	0.099
580.900	-6.125	0.099
581.000	-8.972	0.099
581.100	-12.262	0.099
581.200	2.573	0.099
581.300	-1.937	0.099
581.400	-9.020	0.099
581.500	-9.311	0.099
581.600	-9.694	0.099
581.700	-8.047	0.099
581.800	-11.669	0.099
581.900	-8.439	0.099
582.000	-4.278	0.099
582.100	-7.298	0.099
582.200	-2.654	0.099
582.300	3.930	0.099
582.400	-4.233	0.099
582.500	-2.901	0.099
582.600	-2.680	0.099
582.700	-11.792	0.099
582.800	4.015	0.099
582.900	-11.818	0.099
583.000	-3.340	0.099
583.100	-3.377	0.099
583.200	-2.591	0.099
583.300	-10.217	0.099
583.400	-10.903	0.099
583.500	-13.492	0.099
583.600	-2.275	0.099
583.700	-5.777	0.099
583.800	-10.006	0.099
583.900	-9.212	0.099
584.000	-11.560	0.099
584.100	-17.889	0.099
584.200	-9.496	0.099
584.300	-3.689	0.099
584.400	2.140	0.099
584.500	-3.276	0.099
584.600	-6.744	0.099
584.700	-11.685	0.099
584.800	-8.636	0.099
584.900	-11.100	0.099
585.000	-6.531	0.099
585.100	-0.219	0.099
585.200	-6.337	0.099
585.300	3.425	0.099
585.400	-8.982	0.099
585.500	-6.133	0.099
585.600	-1.106	0.099
585.700	-4.378	0.099
585.800	-6.365	0.099
585.900	-10.086	0.099
586.000	-14.453	0.099
586.100	-8.157	0.099
586.200	-0.299	0.099
586.300	-6.279	0.099
586.400	-4.231	0.099
586.500	-6.826	0.099
586.600	-4.335	0.099
586.700	3.118	0.099
586.800	-4.100	0.099
586.900	-6.751	0.099
587.000	-5.099	0.099
587.100	-2.759	0.099
587.200	-7.669	0.099
587.300	-7.599	0.099
587.400	-6.004	0.099
587.500	3.035	0.099
587.600	-11.723	0.099
587.700	-7.308	0.099
587.800	-13.055	0.099
587.900	-4.532	0.099
588.000	-1.850	0.099
588.100	-5.156	0.099
588.200	1.580	0.099
588.300	-4.077	0.099
588.400	-10.738	0.099
588.500	-6.263	0.099
588.600	-7.837	0.099
588.700	-2.020	0.099
588.800	-4.888	0.099
588.900	-20.644	0.099
589.000	-17.982	0.099
589.100	1.163	0.099
589.200	-12.070	0.099
589.300	-16.838	0.099
589.400	-8.167	0.099
589.500	-6.361	0.099
589.600	-5.455	0.099
589.700	7.983	0.099
589.800	-9.352	0.099
589.900	-13.739	0.099
590.000	-18.182	0.099
590.100	-15.485	0.099
590.200	-13.474	0.099
590.300	-6.882	0.099
590.400	-8.300	0.099
590.500	-2.158	0.099
590.600	-11.208	0.099
590.700	-1.895	0.099
590.800	-4.824	0.099
590.900	-3.349	0.099
591.000	-6.404	0.099
591.100	-14.441	0.099
591.200	-11.665	0.099
591.300	-11.291	0.099
591.400	-0.760	0.099
591.500	-2.568	0.099
591.600	-1.778	0.099
591.700	-6.367	0.099
591.800	-14.709	0.099
591.900	-2.333	0.099
592.000	-12.672	0.099
592.100	-12.645	0.099
592.200	-15.603	0.099
592.300	-11.731	0.099
592.400	-6.572	0.099
592.500	-6.749	0.099
592.600	-9.254	0.099
592.700	-27.034	0.099
592.800	-16.045	0.099
592.900	2.336	0.099
593.000	0.962	0.099
593.100	-3.691	0.099
593.200	-10.291	0.099
593.300	-9.793	0.099
593.400	-10.639	0.099
593.500	-9.339	0.099
593.600	-5.129	0.099
593.700	5.909	0.099
593.800	-3.727	0.099
593.900	-19.246	0.099
594.000	-12.487	0.099
594.100	-9.968	0.099
594.200	-9.100	0.099
594.300	-6.087	0.099
594.400	-7.555	0.099
594.500	-4.153	0.099
594.600	-3.876	0.099
594.700	-4.026	0.100
594.800	-12.695	0.099
594.900	-9.218	0.099
595.000	-11.013	0.099
595.100	-3.429	0.099
595.200	0.694	0.099
595.300	-3.183	0.099
595.400	-11.736	0.099
595.500	-8.655	0.099
595.600	-10.652	0.099
595.700	-8.580	0.099
595.800	-10.642	0.100
595.900	-8.438	0.100
596.000	-15.417	0.100
596.100	-13.657	0.100
596.200	-4.933	0.100
596.300	5.252	0.100
596.400	-1.227	0.100
596.500	-6.176	0.100
596.600	-6.354	0.100
596.700	-4.401	0.100
596.800	0.132	0.100
596.900	-13.793	0.100
597.000	-5.796	0.100
597.100	-17.529	0.100
597.200	-5.354	0.100
597.300	-1.781	0.100
597.400	-1.365	0.100
597.500	-18.028	0.100
597.600	-12.912	0.100
597.700	-0.458	0.100
597.800	-3.031	0.100
597.900	-6.584	0.100
598.000	-7.656	0.100
598.100	-8.874	0.100
598.200	-0.978	0.100
598.300	-2.318	0.100
598.400	-8.845	0.100
598.500	-7.572	0.100
598.600	-2.547	0.100
598.700	-12.666	0.100
598.800	-1.550	0.100
598.900	-9.924	0.100
599.000	-11.552	0.100
599.100	-6.213	0.100
599.200	-2.734	0.100
599.300	-3.550	0.100
599.400	-13.303	0.100
599.500	-6.144	0.100
599.600	-17.568	0.100
599.700	3.291	0.100
599.800	-7.321	0.100
599.900	-9.336	0.100
600.000	-3.716	0.100
600.100	-13.995	0.100
600.200	-10.271	0.100
600.300	-13.417	0.100
600.400	-5.956	0.100
600.500	-2.817	0.100
600.600	-5.944	0.100
600.700	-4.335	0.100
600.800	-4.483	0.100
600.900	-15.747	0.100
601.000	-6.398	0.100
601.100	-6.498	0.100
601.200	-15.082	0.100
601.300	-6.696	0.100
601.400	-2.053	0.100
601.500	-3.770	0.100
601.600	-9.544	0.100
601.700	-5.926	0.100
601.800	-6.315	0.100
601.900	-9.578	0.100
602.000	-3.957	0.100
602.100	-9.517	0.100
602.200	-4.664	0.100
602.300	-2.050	0.100
602.400	-4.470	0.100
602.500	-7.658	0.100
602.600	-12.103	0.100
602.700	-23.924	0.100
602.800	-3.810	0.100
602.900	-2.716	0.100
603.000	-4.214	0.100
603.100	-5.116	0.100
603.200	-13.293	0.100
603.300	-2.832	0.100
603.400	-5.318	0.100
603.500	-17.270	0.100
603.600	-7.477	0.100
603.700	-3.339	0.100
603.800	-14.648	0.100
603.900	-5.925	0.100
604.000	-0.043	0.100
604.100	-0.837	0.100
604.200	-10.477	0.100
604.300	-4.239	0.100
604.400	-3.213	0.100
604.500	-4.843	0.100
604.600	-8.921	0.100
604.700	-12.261	0.100
604.800	-6.864	0.100
604.900	-8.981	0.100
605.000	-4.632	0.100
605.100	-3.119	0.100
605.200	-1.526	0.100
605.300	-7.905	0.100
605.400	-9.663	0.100
605.500	-6.818	0.100
605.600	-12.817	0.100
605.700	0.571	0.100
605.800	-6.821	0.100
605.900	-17.382	0.100
606.000	-5.909	0.100
606.100	-7.681	0.100
606.200	-2.567	0.100
606.300	-5.030	0.100
606.400	-4.521	0.100
606.500	-8.267	0.100
606.600	-8.661	0.100
606.700	-7.551	0.100
606.800	-5.372	0.100
606.900	-2.034	0.100
607.000	-7.376	0.100
607.100	-6.247	0.100
607.200	-14.802	0.100
607.300	-2.171	0.100
607.400	-6.257	0.100
607.500	-0.337	0.100
607.600	-7.675	0.100
607.700	-9.016	0.100
607.800	-1.134	0.100
607.900	2.648	0.100
608.000	-2.827	0.100
608.100	1.069	0.100
608.200	-10.862	0.100
608.300	-8.912	0.100
608.400	-6.585	0.100
608.500	-7.978	0.100
608.600	-6.477	0.100
608.700	-4.299	0.100
608.800	-3.918	0.100
608.900	-9.031	0.100
609.000	0.521	0.100
609.100	-8.454	0.100
609.200	-11.132	0.100
609.300	-4.794	0.100
609.400	-11.498	0.100
609.500	-1.584	0.100
609.600	-1.772	0.100
609.700	-3.301	0.100
609.800	-7.156	0.100
609.900	-6.539	0.100
610.000	-8.391	0.100
610.100	-17.501	0.100
610.200	-17.726	0.100
610.300	-3.248	0.100
610.400	-0.712	0.100
610.500	-3.190	0.100
610.600	-8.889	0.100
610.700	-13.672	0.100
610.800	-3.825	0.100
610.900	-11.894	0.100
611.000	-18.022	0.100
611.100	-8.031	0.100
611.200	-2.948	0.100
611.300	-0.758	0.100
611.400	-4.406	0.100
611.500	-11.784	0.100
611.600	0.465	0.100
611.700	-2.256	0.100
611.800	-10.735	0.100
611.900	-11.070	0.100
612.000	-8.956	0.100
612.100	-9.034	0.100
612.200	0.179	0.100
612.300	-0.936	0.100
612.400	-9.485	0.100
612.500	-3.509	0.100
612.600	-16.300	0.100
612.700	-12.486	0.100
612.800	-4.503	0.100
612.900	-14.249	0.100
613.000	-5.727	0.100
613.100	-4.572	0.100
613.200	1.299	0.100
613.300	-4.973	0.100
613.400	-19.052	0.100
613.500	1.788	0.100
613.600	0.548	0.100
613.700	-14.745	0.100
613.800	-8.968	0.100
613.900	-3.166	0.100
614.000	-4.337	0.100
614.100	-5.782	0.100
614.200	-3.079	0.100
614.300	-3.520	0.100
614.400	0.274	0.100
614.500	-3.466	0.100
614.600	-22.691	0.100
614.700	-4.956	0.100
614.800	0.184	0.100
614.900	-7.767	0.100
615.000	-5.712	0.100
615.100	-5.011	0.100
615.200	-17.130	0.100
615.300	-3.998	0.100
615.400	-14.311	0.100
615.500	-7.040	0.100
615.600	4.389	0.100
615.700	0.457	0.100
615.800	-2.241	0.100
615.900	-4.443	0.100
616.000	-4.981	0.100
616.100	-5.908	0.100
616.200	-1.061	0.100
616.300	-5.176	0.100
616.400	-12.347	0.100
616.500	-6.929	0.100
616.600	0.247	0.100
616.700	-1.675	0.100
616.800	-4.785	0.100
616.900	-7.082	0.100
617.000	-15.192	0.100
617.100	-5.335	0.100
617.200	-13.091	0.100
617.300	-10.880	0.100
617.400	-7.069	0.100
617.500	-8.275	0.100
617.600	-6.770	0.100
617.700	-7.934	0.100
617.800	-3.513	0.100
617.900	6.032	0.100
618.000	-15.464	0.100
618.100	-2.021	0.100
618.200	-4.724	0.100
618.300	-10.040	0.100
618.400	-10.911	0.100
618.500	0.669	0.100
618.600	-5.661	0.100
618.700	-10.431	0.100
618.800	-1.715	0.100
618.900	-10.127	0.100
619.000	-7.062	0.100
619.100	-10.898	0.100
619.200	-1.519	0.100
619.300	-16.585	0.100
619.400	-10.908	0.100
619.500	-4.119	0.100
619.600	-2.838	0.100
619.700	-1.639	0.100
619.800	1.955	0.100
619.900	-4.384	0.100
620.000	-5.511	0.100
620.100	-5.584	0.100
620.200	-7.123	0.100
620.300	-11.055	0.100
620.400	-8.861	0.100
620.500	-14.627	0.100
620.600	0.001	0.100
620.700	-4.310	0.100
620.800	-6.428	0.100
620.900	-8.168	0.100
621.000	-9.639	0.100
621.100	4.561	0.100
621.200	-8.953	0.100
621.300	-16.022	0.100
621.400	-9.285	0.100
621.500	-3.798	0.100
621.600	-3.832	0.100
621.700	-0.658	0.100
621.800	0.889	0.100
621.900	-16.579	0.100
622.000	1.591	0.100
622.100	-3.556	0.100
622.200	-13.118	0.100
622.300	-9.538	0.100
622.400	-8.749	0.100
622.500	-11.623	0.100
622.600	-19.481	0.100
622.700	-3.122	0.100
622.800	-7.059	0.100
622.900	-8.654	0.100
623.000	4.202	0.100
623.100	-11.630	0.100
623.200	-5.406	0.100
623.300	-4.765	0.100
623.400	-5.758	0.100
623.500	-8.324	0.100
623.600	-7.725	0.100
623.700	-5.130	0.100
623.800	-0.498	0.100
623.900	-9.657	0.100
624.000	-7.574	0.100
624.100	-3.487	0.100
624.200	-1.739	0.100
624.300	-12.148	0.100
624.400	-3.313	0.100
624.500	-8.486	0.100
624.600	-7.155	0.100
624.700	-0.409	0.100
624.800	-10.596	0.100
624.900	-8.001	0.100
625.000	-4.742	0.100
625.100	2.055	0.100
625.200	-8.253	0.100
625.300	-13.541	0.100
625.400	-5.255	0.100
625.500	2.013	0.100
625.600	-5.210	0.100
625.700	-2.361	0.100
625.800	-13.086	0.100
625.900	-15.810	0.100
626.000	-6.653	0.100
626.100	-1.065	0.100
626.200	-11.176	0.100
626.300	-3.316	0.100
626.400	-11.053	0.100
626.500	-4.753	0.100
626.600	-5.326	0.100
626.700	-6.301	0.100
626.800	-3.407	0.100
626.900	-18.381	0.100
627.000	1.500	0.100
627.100	-4.680	0.100
627.200	-6.466	0.100
627.300	-5.101	0.100
627.400	-12.282	0.100
627.500	-10.660	0.100
627.600	-8.302	0.100
627.700	-2.972	0.100
627.800	-9.378	0.100
627.900	-6.739	0.100
628.000	4.256	0.100
628.100	-8.815	0.100
628.200	-15.194	0.100
628.300	-3.969	0.100
628.400	-2.916	0.100
628.500	-11.681	0.100
628.600	-4.008	0.100
628.700	-1.530	0.100
628.800	-3.964	0.100
628.900	-5.476	0.100
629.000	-4.308	0.100
629.100	-1.247	0.100
629.200	-8.513	0.100
629.300	-6.222	0.100
629.400	-7.373	0.100
629.500	-12.464	0.100
629.600	-2.726	0.100
629.700	-2.639	0.100
629.800	-5.124	0.100
629.900	-15.573	0.100
630.000	0.366	0.100
630.100	-1.732	0.100
630.200	-1.139	0.100
630.300	-14.388	0.100
630.400	-6.492	0.100
630.500	-4.388	0.100
630.600	-0.190	0.100
630.700	-4.666	0.100
630.800	-6.858	0.100
630.900	-11.480	0.100
631.000	-15.179	0.100
631.100	-11.316	0.100
631.200	-9.515	0.100
631.300	-7.345	0.100
631.400	-6.682	0.100
631.500	0.367	0.100
631.600	1.156	0.100
631.700	1.132	0.100
631.800	-14.656	0.100
631.900	-0.025	0.100
632.000	2.927	0.100
632.100	3.452	0.100
632.200	-12.612	0.100
632.300	-4.697	0.100
632.400	3.325	0.100
632.500	6.361	0.100
632.600	-4.540	0.100
632.700	0.454	0.100
632.800	3.314	0.100
632.900	-5.921	0.100
633.000	-9.547	0.100
633.100	-3.858	0.100
633.200	-6.974	0.100
633.300	-1.497	0.100
633.400	6.645	0.100
633.500	7.388	0.100
633.600	4.748	0.100
633.700	-9.633	0.100
633.800	-3.134	0.100
633.900	-5.964	0.100
634.000	3.116	0.100
634.100	1.457	0.100
634.200	5.360	0.100
634.300	11.387	0.100
634.400	-3.041	0.100
634.500	-0.077	0.100
634.600	0.778	0.100
634.700	1.876	0.100
634.800	0.131	0.100
634.900	-2.903	0.100
635.000	6.106	0.100
635.100	-0.058	0.100
635.200	-0.460	0.100
635.300	2.086	0.100
635.400	0.438	0.100
635.500	7.257	0.100
635.600	1.786	0.100
635.700	-12.991	0.100
635.800	0.575	0.100
635.900	-1.406	0.100
636.000	-3.391	0.100
636.100	17.531	0.100
636.200	15.763	0.100
636.300	-0.334	0.100
636.400	-3.523	0.100
636.500	-2.447	0.100
636.600	-2.080	0.100
636.700	4.425	0.100
636.800	2.331	0.100
636.900	6.413	0.100
637.000	-4.132	0.100
637.100	3.762	0.100
637.200	5.342	0.100
637.300	7.864	0.100
637.400	-6.008	0.100
637.500	2.663	0.100
637.600	3.587	0.100
637.700	9.678	0.100
637.800	14.524	0.100
637.900	-4.957	0.100
638.000	-1.554	0.100
638.100	3.009	0.100
638.200	11.857	0.100
638.300	10.696	0.100
638.400	0.704	0.100
638.500	-0.171	0.100
638.600	7.845	0.100
638.700	4.755	0.100
638.800	8.184	0.100
638.900	6.655	0.100
639.000	-0.206	0.100
639.100	7.421	0.100
639.200	6.936	0.100
639.300	-3.120	0.100
639.400	-9.494	0.100
639.500	0.375	0.100
639.600	1.214	0.100
639.700	6.220	0.100
639.800	6.536	0.100
639.900	6.683	0.100
640.000	3.263	0.100
640.100	-6.702	0.100
640.200	2.474	0.100
640.300	14.547	0.100
640.400	14.885	0.100
640.500	5.154	0.100
640.600	-0.757	0.100
640.700	3.121	0.100
640.800	16.501	0.100
640.900	7.302	0.100
641.000	6.930	0.100
641.100	-9.262	0.100
641.200	3.340	0.100
641.300	10.054	0.100
641.400	-5.729	0.100
641.500	-3.689	0.100
641.600	0.666	0.100
641.700	12.168	0.100
641.800	1.992	0.100
641.900	8.781	0.100
642.000	2.907	0.100
642.100	1.719	0.100
642.200	1.130	0.100
642.300	11.990	0.100
642.400	6.693	0.100
642.500	8.239	0.100
642.600	-0.405	0.100
642.700	-4.157	0.100
642.800	1.367	0.100
642.900	4.861	0.100
643.000	7.014	0.100
643.100	-1.755	0.100
643.200	11.318	0.100
643.300	4.740	0.100
643.400	8.347	0.100
643.500	-0.394	0.100
643.600	2.001	0.100
643.700	-3.383	0.100
643.800	-5.762	0.100
643.900	5.745	0.100
644.000	16.715	0.100
644.100	17.565	0.100
644.200	12.314	0.100
644.300	4.053	0.100
644.400	1.702	0.100
644.500	8.248	0.100
644.600	15.290	0.100
644.700	-0.447	0.100
644.800	10.615	0.100
644.900	-1.357	0.100
645.000	5.372	0.100
645.100	6.092	0.100
645.200	9.779	0.100
645.300	17.985	0.100
645.400	9.488	0.100
645.500	3.260	0.100
645.600	4.201	0.100
645.700	11.926	0.100
645.800	9.507	0.100
645.900	13.418	0.100
646.000	8.703	0.100
646.100	9.172	0.100
646.200	10.623	0.100
646.300	-2.071	0.100
646.400	-0.524	0.100
646.500	11.548	0.100
646.600	13.417	0.100
646.700	4.427	0.100
646.800	10.749	0.100
646.900	-6.566	0.100
647.000	-4.827	0.100
647.100	6.695	0.100
647.200	11.254	0.100
647.300	12.761	0.100
647.400	13.676	0.100
647.500	15.349	0.100
647.600	12.146	0.100
647.700	15.118	0.100
647.800	0.683	0.100
647.900	6.996	0.100
648.000	4.157	0.100
648.100	-1.094	0.100
648.200	14.646	0.100
648.300	14.858	0.100
648.400	2.848	0.100
648.500	10.229	0.100
648.600	9.404	0.100
648.700	18.551	0.100
648.800	15.511	0.100
648.900	11.706	0.100
649.000	8.955	0.100
649.100	-1.259	0.100
649.200	2.312	0.100
649.300	13.405	0.100
649.400	13.065	0.100
649.500	15.791	0.100
649.600	11.256	0.100
649.700	11.138	0.100
649.800	9.017	0.100
649.900	14.098	0.100
650.000	11.213	0.100
650.100	20.292	0.100
650.200	16.243	0.100
650.300	12.261	0.100
650.400	7.260	0.100
650.500	-0.099	0.100
650.600	15.356	0.100
650.700	15.426	0.100
650.800	12.862	0.100
650.900	2.810	0.100
651.000	19.976	0.100
651.100	13.775	0.100
651.200	7.840	0.100
651.300	11.098	0.100
651.400	22.301	0.100
651.500	14.299	0.100
651.600	14.748	0.100
651.700	16.194	0.100
651.800	13.948	0.100
651.900	-2.042	0.100
652.000	12.692	0.100
652.100	16.133	0.100
652.200	13.666	0.100
652.300	16.451	0.100
652.400	15.369	0.100
652.500	8.005	0.100
652.600	11.040	0.100
652.700	9.998	0.100
652.800	10.359	0.100
652.900	17.659	0.100
653.000	9.855	0.100
653.100	6.929	0.100
653.200	14.223	0.100
653.300	15.476	0.100
653.400	14.241	0.100
653.500	6.997	0.100
653.600	8.625	0.100
653.700	16.489	0.100
653.800	15.629	0.100
653.900	13.925	0.100
654.000	11.768	0.100
654.100	11.371	0.100
654.200	5.767	0.100
654.300	5.921	0.100
654.400	14.083	0.100
654.500	6.270	0.100
654.600	14.751	0.100
654.700	18.514	0.100
654.800	13.377	0.100
654.900	15.841	0.100
655.000	15.461	0.100
655.100	18.249	0.100
655.200	15.654	0.100
655.300	5.361	0.100
655.400	5.649	0.100
655.500	13.190	0.100
655.600	12.310	0.100
655.700	19.764	0.100
655.800	5.118	0.100
655.900	14.658	0.100
656.000	19.837	0.100
656.100	19.732	0.100
656.200	19.064	0.100
656.300	18.795	0.100
656.400	18.472	0.100
656.500	12.507	0.100
656.600	8.119	0.100
656.700	14.563	0.100
656.800	17.694	0.100
656.900	14.124	0.100
657.000	12.183	0.100
657.100	21.764	0.100
657.200	12.183	0.100
657.300	16.333	0.100
657.400	17.702	0.100
657.500	20.838	0.100
657.600	11.336	0.100
657.700	7.250	0.100
657.800	13.803	0.100
657.900	12.239	0.100
658.000	18.693	0.100
658.100	19.369	0.100
658.200	15.439	0.100
658.300	21.822	0.100
658.400	11.590	0.100
658.500	11.378	0.100
658.600	19.101	0.100
658.700	13.405	0.100
658.800	17.660	0.100
658.900	21.742	0.100
659.000	26.043	0.100
659.100	13.177	0.100
659.200	10.958	0.100
659.300	10.216	0.100
659.400	15.388	0.100
659.500	11.883	0.100
659.600	14.487	0.100
659.700	18.006	0.100
659.800	20.689	0.100
659.900	21.414	0.100
660.000	11.402	0.100
660.100	11.116	0.100
660.200	21.227	0.100
660.300	10.843	0.100
660.400	14.152	0.100
660.500	19.746	0.100
660.600	2.964	0.100
660.700	12.511	0.100
660.800	29.789	0.100
660.900	24.807	0.100
661.000	21.215	0.100
661.100	19.328	0.100
661.200	13.192	0.100
661.300	15.774	0.100
661.400	8.579	0.100
661.500	11.505	0.100
661.600	17.321	0.100
661.700	13.863	0.100
661.800	9.648	0.100
661.900	8.930	0.100
662.000	13.906	0.100
662.100	24.996	0.100
662.200	18.205	0.100
662.300	15.469	0.100
662.400	15.373	0.100
662.500	18.492	0.100
662.600	22.825	0.100
662.700	17.637	0.100
662.800	16.687	0.100
662.900	28.371	0.100
663.000	12.636	0.100
663.100	17.077	0.100
663.200	20.783	0.100
663.300	18.115	0.100
663.400	24.987	0.100
663.500	10.427	0.100
663.600	10.511	0.100
663.700	13.762	0.100
663.800	20.521	0.100
663.900	22.887	0.100
664.000	16.311	0.100
664.100	21.299	0.100
664.200	21.700	0.100
664.300	21.208	0.100
664.400	15.382	0.100
664.500	12.399	0.100
664.600	11.702	0.100
664.700	17.702	0.100
664.800	15.234	0.100
664.900	14.198	0.100
665.000	34.885	0.100
665.100	20.042	0.100
665.200	12.060	0.100
665.300	24.896	0.100
665.400	9.735	0.100
665.500	10.918	0.100
665.600	6.803	0.100
665.700	25.284	0.100
665.800	23.955	0.100
665.900	21.840	0.100
666.000	12.105	0.100
666.100	15.324	0.100
666.200	17.324	0.100
666.300	23.165	0.100
666.400	27.421	0.100
666.500	18.045	0.100
666.600	15.273	0.100
666.700	20.691	0.100
666.800	21.463	0.100
666.900	18.962	0.100
667.000	19.475	0.100
667.100	25.737	0.100
667.200	16.084	0.100
667.300	14.796	0.100
667.400	13.196	0.100
667.500	21.033	0.100
667.600	26.648	0.100
667.700	24.010	0.100
667.800	20.434	0.100
667.900	24.007	0.100
668.000	14.524	0.100
668.100	12.442	0.100
668.200	14.570	0.100
668.300	26.840	0.100
668.400	16.945	0.100
668.500	19.976	0.100
668.600	24.737	0.100
668.700	26.622	0.100
668.800	22.996	0.100
668.900	24.377	0.100
669.000	21.332	0.100
669.100	16.727	0.100
669.200	21.979	0.100
669.300	9.359	0.100
669.400	11.404	0.100
669.500	16.580	0.100
669.600	18.692	0.100
669.700	19.774	0.100
669.800	27.043	0.100
669.900	18.689	0.100
670.000	12.140	0.100
670.100	17.227	0.100
670.200	20.391	0.100
670.300	20.415	0.100
670.400	18.880	0.100
670.500	22.874	0.100
670.600	18.032	0.100
670.700	21.591	0.100
670.800	16.524	0.100
670.900	24.180	0.100
671.000	28.134	0.100
671.100	25.663	0.100
671.200	24.255	0.100
671.300	20.350	0.100
671.400	20.808	0.100
671.500	13.805	0.100
671.600	9.925	0.100
671.700	24.117	0.100
671.800	8.056	0.100
671.900	27.505	0.100
672.000	21.286	0.100
672.100	23.590	0.100
672.200	18.457	0.100
672.300	12.653	0.100
672.400	20.839	0.100
672.500	12.437	0.100
672.600	29.268	0.100
672.700	17.661	0.100
672.800	22.140	0.100
672.900	14.817	0.100
673.000	24.266	0.100
673.100	15.964	0.100
673.200	18.809	0.100
673.300	21.267	0.100
673.400	8.613	0.100
673.500	12.034	0.100
673.600	19.675	0.100
673.700	15.920	0.100
673.800	21.913	0.100
673.900	24.810	0.100
674.000	22.960	0.100
674.100	19.878	0.100
674.200	17.524	0.100
674.300	20.270	0.100
674.400	18.848	0.100
674.500	26.004	0.100
674.600	18.985	0.100
674.700	22.103	0.100
674.800	21.752	0.100
674.900	12.751	0.100
675.000	17.573	0.100
675.100	25.536	0.100
675.200	23.189	0.100
675.300	13.089	0.100
675.400	16.058	0.100
675.500	13.322	0.100
675.600	17.375	0.100
675.700	26.204	0.100
675.800	23.588	0.100
675.900	21.272	0.100
676.000	21.044	0.100
676.100	30.688	0.100
676.200	25.106	0.100
676.300	20.257	0.100
676.400	17.478	0.100
676.500	21.524	0.100
676.600	28.718	0.100
676.700	19.735	0.100
676.800	25.259	0.100
676.900	26.543	0.100
677.000	17.985	0.100
677.100	30.354	0.100
677.200	26.801	0.100
677.300	11.584	0.100
677.400	12.254	0.100
677.500	23.276	0.100
677.600	31.402	0.100
677.700	23.136	0.100
677.800	25.172	0.100
677.900	30.133	0.100
678.000	16.716	0.100
678.100	10.352	0.100
678.200	21.299	0.100
678.300	12.370	0.100
678.400	22.721	0.100
678.500	15.794	0.100
678.600	17.302	0.100
678.700	22.496	0.100
678.800	21.985	0.100
678.900	14.805	0.100
679.000	25.126	0.100
679.100	18.447	0.100
679.200	26.556	0.100
679.300	28.842	0.100
679.400	24.442	0.100
679.500	23.966	0.100
679.600	21.577	0.100
679.700	16.653	0.100
679.800	18.866	0.100
679.900	13.339	0.100
680.000	20.980	0.100
680.100	20.674	0.100
680.200	22.293	0.100
680.300	24.275	0.100
680.400	23.923	0.100
680.500	17.468	0.100
680.600	24.691	0.100
680.700	22.158	0.100
680.800	26.553	0.100
680.900	10.494	0.100
681.000	25.760	0.100
681.100	21.147	0.100
681.200	20.088	0.100
681.300	26.848	0.100
681.400	26.290	0.100
681.500	25.320	0.100
681.600	21.576	0.100
681.700	21.301	0.100
681.800	22.721	0.100
681.900	17.311	0.100
682.000	11.944	0.100
682.100	26.279	0.100
682.200	25.986	0.100
682.300	27.489	0.100
682.400	24.764	0.100
682.500	12.106	0.100
682.600	16.937	0.100
682.700	22.730	0.100
682.800	14.725	0.100
682.900	19.302	0.100
683.000	11.045	0.100
683.100	33.796	0.100
683.200	26.334	0.100
683.300	19.672	0.100
683.400	24.603	0.100
683.500	20.733	0.100
683.600	24.057	0.100
683.700	23.328	0.100
683.800	18.595	0.100
683.900	16.207	0.100
684.000	21.798	0.100
684.100	10.678	0.100
684.200	24.208	0.100
684.300	30.310	0.100
684.400	11.092	0.100
684.500	20.474	0.100
684.600	32.997	0.100
684.700	15.648	0.100
684.800	16.855	0.100
684.900	17.460	0.100
685.000	21.555	0.100
685.100	23.634	0.100
685.200	16.797	0.100
685.300	16.866	0.100
685.400	22.142	0.100
685.500	11.993	0.100
685.600	29.893	0.100
685.700	21.637	0.100
685.800	23.924	0.100
685.900	22.939	0.100
686.000	13.089	0.100
686.100	21.923	0.100
686.200	24.152	0.100
686.300	18.299	0.100
686.400	26.742	0.100
686.500	27.082	0.100
686.600	19.940	0.100
686.700	23.760	0.100
686.800	25.098	0.100
686.900	15.393	0.100
687.000	7.768	0.100
687.100	16.449	0.100
687.200	23.964	0.100
687.300	21.123	0.100
687.400	23.567	0.100
687.500	20.440	0.100
687.600	22.947	0.100
687.700	30.167	0.100
687.800	24.320	0.100
687.900	21.823	0.100
688.000	12.864	0.100
688.100	34.403	0.100
688.200	27.867	0.100
688.300	14.263	0.100
688.400	23.997	0.100
688.500	18.545	0.100
688.600	21.016	0.100
688.700	22.110	0.100
688.800	20.739	0.100
688.900	17.228	0.100
689.000	24.922	0.100
689.100	25.189	0.100
689.200	26.209	0.100
689.300	12.983	0.100
689.400	14.107	0.100
689.500	29.683	0.100
689.600	27.151	0.100
689.700	23.877	0.100
689.800	15.531	0.100
689.900	20.877	0.100
690.000	16.368	0.100
690.100	28.555	0.100
690.200	24.843	0.100
690.300	23.840	0.100
690.400	14.715	0.100
690.500	19.895	0.100
690.600	21.677	0.100
690.700	19.246	0.100
690.800	18.856	0.100
690.900	16.455	0.100
691.000	7.774	0.100
691.100	21.138	0.100
691.200	19.147	0.100
691.300	8.425	0.100
691.400	20.771	0.100
691.500	22.257	0.100
691.600	26.948	0.100
691.700	21.649	0.100
691.800	8.640	0.100
691.900	23.084	0.100
692.000	24.176	0.100
692.100	12.844	0.100
692.200	13.532	0.100
692.300	17.992	0.100
692.400	18.250	0.100
692.500	25.787	0.100
692.600	26.296	0.100
692.700	23.628	0.100
692.800	24.343	0.100
692.900	20.049	0.100
693.000	18.925	0.100
693.100	20.098	0.100
693.200	18.103	0.100
693.300	19.119	0.100
693.400	16.565	0.100
693.500	4.996	0.100
693.600	14.927	0.100
693.700	15.118	0.100
693.800	16.111	0.100
693.900	17.962	0.100
694.000	21.026	0.100
694.100	1.599	0.100
694.200	22.280	0.100
694.300	21.901	0.100
694.400	11.670	0.100
694.500	6.131	0.100
694.600	5.362	0.100
694.700	19.022	0.100
694.800	16.162	0.100
694.900	22.018	0.100
695.000	6.788	0.100
695.100	-0.706	0.100
695.200	12.950	0.100
695.300	16.985	0.100
695.400	13.482	0.100
695.500	16.160	0.100
695.600	15.204	0.100
695.700	12.876	0.100
695.800	13.562	0.100
695.900	17.975	0.100
696.000	21.675	0.100
696.100	17.724	0.100
696.200	11.939	0.100
696.300	6.897	0.100
696.400	8.553	0.100
696.500	16.742	0.100
696.600	14.172	0.100
696.700	17.023	0.100
696.800	19.540	0.100
696.900	20.009	0.100
697.000	8.234	0.100
697.100	8.715	0.100
697.200	12.624	0.100
697.300	15.055	0.100
697.400	11.561	0.100
697.500	10.375	0.100
697.600	5.687	0.100
697.700	6.296	0.100
697.800	7.090	0.100
697.900	16.340	0.100
698.000	11.885	0.100
698.100	6.715	0.100
698.200	4.961	0.100
698.300	11.703	0.100
698.400	7.110	0.100
698.500	8.473	0.100
698.600	12.280	0.100
698.700	7.541	0.100
698.800	8.322	0.100
698.900	11.390	0.100
699.000	4.244	0.100
699.100	13.035	0.100
699.200	18.630	0.100
699.300	2.765	0.100
699.400	13.334	0.100
699.500	13.795	0.100
699.600	3.093	0.100
699.700	2.951	0.100
699.800	6.030	0.100
699.900	17.849	0.100
700.000	21.316	0.100
700.100	5.195	0.100
700.200	13.609	0.100
700.300	11.037	0.100
700.400	20.040	0.100
700.500	14.534	0.100
700.600	16.004	0.100
700.700	18.968	0.100
700.800	13.700	0.100
700.900	9.035	0.100
701.000	5.610	0.100
701.100	1.144	0.100
701.200	8.215	0.100
701.300	7.653	0.100
701.400	25.972	0.100
701.500	22.512	0.100
701.600	7.007	0.100
701.700	4.315	0.100
701.800	-6.695	0.100
701.900	8.559	0.100
702.000	7.604	0.100
702.100	9.846	0.100
702.200	8.764	0.100
702.300	-9.856	0.100
702.400	10.010	0.100
702.500	17.199	0.100
702.600	9.925	0.100
702.700	12.038	0.100
702.800	9.134	0.100
702.900	16.321	0.100
703.000	9.816	0.100
703.100	13.144	0.100
703.200	9.513	0.100
703.300	0.463	0.100
703.400	-1.370	0.100
703.500	4.187	0.100
703.600	2.820	0.100
703.700	6.529	0.100
703.800	3.282	0.100
703.900	14.066	0.100
704.000	2.692	0.100
704.100	1.971	0.100
704.200	14.440	0.100
704.300	-1.668	0.100
704.400	2.361	0.100
704.500	9.017	0.100
704.600	8.742	0.100
704.700	5.526	0.100
704.800	2.642	0.100
704.900	9.183	0.100
705.000	0.088	0.100
705.100	16.550	0.100
705.200	14.017	0.100
705.300	0.206	0.100
705.400	14.539	0.100
705.500	3.099	0.100
705.600	15.044	0.100
705.700	0.441	0.100
705.800	-6.707	0.100
705.900	5.562	0.100
706.000	11.506	0.100
706.100	7.789	0.100
706.200	13.372	0.100
706.300	-3.729	0.100
706.400	11.094	0.100
706.500	4.281	0.100
706.600	0.004	0.100
706.700	9.855	0.100
706.800	2.768	0.100
706.900	9.836	0.100
707.000	6.230	0.100
707.100	7.145	0.100
707.200	10.380	0.100
707.300	5.318	0.100
707.400	17.207	0.100
707.500	12.785	0.100
707.600	7.039	0.100
707.700	6.516	0.100
707.800	7.185	0.100
707.900	1.151	0.100
708.000	0.237	0.100
708.100	2.618	0.100
708.200	0.158	0.100
708.300	-2.854	0.100
708.400	7.985	0.100
708.500	13.285	0.100
708.600	15.969	0.100
708.700	5.200	0.100
708.800	2.425	0.100
708.900	0.890	0.100
709.000	7.536	0.100
709.100	-4.666	0.100
709.200	15.996	0.100
709.300	9.491	0.100
709.400	6.017	0.100
709.500	1.005	0.100
709.600	3.608	0.100
709.700	2.564	0.100
709.800	9.215	0.100
709.900	10.536	0.100
710.000	4.156	0.100
710.100	3.242	0.100
710.200	14.537	0.100
710.300	12.247	0.100
710.400	5.810	0.100
710.500	10.959	0.100
710.600	-1.414	0.100
710.700	6.682	0.100
710.800	4.761	0.100
710.900	0.756	0.100
711.000	4.937	0.100
711.100	10.323	0.100
711.200	-3.123	0.100
711.300	10.953	0.100
711.400	8.894	0.100
711.500	0.182	0.100
711.600	10.194	0.100
711.700	7.856	0.100
711.800	12.425	0.100
711.900	4.104	0.100
712.000	6.624	0.100
712.100	-0.426	0.100
712.200	-9.973	0.100
712.300	-10.352	0.100
712.400	0.514	0.100
712.500	13.883	0.100
712.600	6.645	0.100
712.700	8.230	0.100
712.800	0.621	0.100
712.900	4.572	0.100
713.000	3.720	0.100
713.100	5.900	0.100
713.200	6.036	0.100
713.300	-3.670	0.100
713.400	4.343	0.100
713.500	2.281	0.100
713.600	3.488	0.100
713.700	12.045	0.100
713.800	2.387	0.100
713.900	-0.392	0.100
714.000	2.628	0.100
714.100	1.479	0.100
714.200	-3.841	0.100
714.300	1.015	0.100
714.400	0.100	0.100
714.500	14.091	0.100
714.600	-1.005	0.100
714.700	-1.402	0.100
714.800	-1.284	0.100
714.900	4.316	0.100
715.000	-8.124	0.100
715.100	-0.040	0.100
715.200	1.899	0.100
715.300	-1.768	0.100
715.400	-3.950	0.100
715.500	-0.481	0.100
715.600	11.323	0.100
715.700	-5.071	0.100
715.800	3.111	0.100
715.900	-0.712	0.100
716.000	-6.295	0.100
716.100	-1.521	0.100
716.200	8.395	0.100
716.300	2.155	0.100
716.400	-7.328	0.100
716.500	-2.118	0.100
716.600	2.317	0.100
716.700	1.064	0.100
716.800	6.694	0.100
716.900	1.094	0.100
717.000	-11.527	0.100
717.100	-8.552	0.100
717.200	-13.005	0.100
717.300	-14.766	0.100
717.400	0.177	0.100
717.500	5.961	0.100
717.600	1.794	0.100
717.700	2.980	0.100
717.800	-0.212	0.100
717.900	-3.489	0.100
718.000	-0.031	0.100
718.100	10.399	0.100
718.200	8.691	0.100
718.300	-4.965	0.100
718.400	3.858	0.100
718.500	-13.206	0.100
718.600	-10.338	0.100
718.700	-5.005	0.100
718.800	-6.584	0.100
718.900	0.638	0.100
719.000	3.879	0.100
719.100	0.138	0.100
719.200	-5.287	0.100
719.300	-2.765	0.100
719.400	1.632	0.100
719.500	-6.201	0.100
719.600	2.411	0.100
719.700	-13.306	0.100
719.800	-8.612	0.100
719.900	-10.947	0.100
720.000	-1.275	0.100
720.100	0.342	0.100
720.200	-5.287	0.100
720.300	7.243	0.100
720.400	-4.624	0.100
720.500	-0.084	0.100
720.600	-0.765	0.100
720.700	2.081	0.100
720.800	-4.375	0.100
720.900	3.712	0.100
721.000	2.600	0.100
721.100	-0.450	0.100
721.200	-7.128	0.100
721.300	0.971	0.100
721.400	-6.076	0.100
721.500	0.673	0.100
721.600	-1.769	0.100
721.700	1.525	0.100
721.800	-1.336	0.100
721.900	-5.483	0.100
722.000	9.539	0.100
722.100	-4.548	0.100
722.200	-0.617	0.100
722.300	-1.999	0.100
722.400	-14.732	0.100
722.500	-6.513	0.100
722.600	-3.521	0.100
722.700	3.351	0.100
722.800	0.448	0.100
722.900	0.909	0.100
723.000	-7.002	0.100
723.100	-5.094	0.100
723.200	-5.262	0.100
723.300	-8.626	0.100
723.400	1.201	0.100
723.500	-11.004	0.100
723.600	-1.797	0.100
723.700	3.337	0.100
723.800	1.984	0.100
723.900	7.161	0.100
724.000	-0.691	0.100
724.100	-3.416	0.100
724.200	-5.737	0.100
724.300	-3.147	0.100
724.400	-8.323	0.100
724.500	-10.651	0.100
724.600	-2.747	0.100
724.700	-2.204	0.100
724.800	-9.191	0.100
724.900	3.360	0.100
725.000	4.233	0.100
725.100	-4.284	0.100
725.200	-3.813	0.100
725.300	-4.281	0.100
725.400	-2.359	0.100
725.500	-12.764	0.100
725.600	-2.809	0.100
725.700	-7.944	0.100
725.800	-8.726	0.100
725.900	-16.989	0.100
726.000	-6.344	0.100
726.100	7.342	0.100
726.200	-0.091	0.100
726.300	0.172	0.100
726.400	-5.331	0.100
726.500	-4.447	0.100
726.600	-6.711	0.100
726.700	-5.347	0.100
726.800	-4.903	0.100
726.900	1.718	0.100
727.000	-3.086	0.100
727.100	-8.512	0.100
727.200	-3.118	0.100
727.300	-12.025	0.100
727.400	-8.903	0.100
727.500	-5.271	0.100
727.600	2.835	0.100
727.700	0.641	0.100
727.800	-4.382	0.100
727.900	-4.073	0.100
728.000	-8.988	0.100
728.100	-10.903	0.100
728.200	-6.315	0.100
728.300	-11.158	0.100
728.400	-1.884	0.100
728.500	-5.646	0.100
728.600	-10.126	0.100
728.700	5.310	0.100
728.800	-5.300	0.100
728.900	-8.819	0.100
729.000	-3.935	0.100
729.100	-4.985	0.100
729.200	-4.440	0.100
729.300	-7.491	0.100
729.400	-1.907	0.100
729.500	2.842	0.100
729.600	8.090	0.100
729.700	6.516	0.100
729.800	-0.213	0.100
729.900	-5.628	0.100
730.000	-13.549	0.100
730.100	-3.996	0.100
730.200	-8.708	0.100
730.300	-14.583	0.100
730.400	-10.763	0.100
730.500	-3.757	0.100
730.600	-5.212	0.100
730.700	-4.583	0.100
730.800	-4.678	0.100
730.900	-3.291	0.100
731.000	-13.211	0.100
731.100	-0.076	0.100
731.200	-0.323	0.100
731.300	-4.418	0.100
731.400	-1.168	0.100
731.500	-19.794	0.100
731.600	-8.384	0.100
731.700	3.350	0.100
731.800	-3.685	0.100
731.900	-2.121	0.100
732.000	-2.975	0.100
732.100	-0.503	0.100
732.200	-6.886	0.100
732.300	-9.950	0.100
732.400	-17.289	0.100
732.500	-7.591	0.100
732.600	-0.866	0.100
732.700	-11.236	0.100
732.800	0.365	0.100
732.900	-4.010	0.100
733.000	-6.478	0.100
733.100	-6.957	0.100
733.200	-4.557	0.100
733.300	-2.812	0.100
733.400	-5.402	0.100
733.500	-10.969	0.100
733.600	-12.661	0.100
733.700	-10.903	0.100
733.800	-2.747	0.100
733.900	-8.452	0.100
734.000	-10.409	0.100
734.100	6.402	0.100
734.200	-13.387	0.100
734.300	-6.737	0.100
734.400	-8.742	0.100
734.500	-8.737	0.100
734.600	4.572	0.100
734.700	-10.345	0.100
734.800	-4.849	0.100
734.900	-9.186	0.100
735.000	-3.469	0.100
735.100	0.340	0.100
735.200	-12.249	0.100
735.300	-9.152	0.100
735.400	-6.025	0.100
735.500	-0.638	0.100
735.600	-12.888	0.100
735.700	-12.884	0.100
735.800	-8.241	0.100
735.900	-15.610	0.100
736.000	-7.210	0.100
736.100	-7.206	0.100
736.200	-2.783	0.100
736.300	-1.968	0.100
736.400	-4.888	0.100
736.500	-8.265	0.100
736.600	-5.162	0.100
736.700	1.095	0.100
736.800	-12.087	0.100
736.900	1.031	0.100
737.000	-11.034	0.100
737.100	-1.142	0.100
737.200	-3.274	0.100
737.300	-4.436	0.100
737.400	-11.832	0.100
737.500	-15.051	0.100
737.600	-16.278	0.100
737.700	0.029	0.100
737.800	-8.202	0.100
737.900	-14.595	0.100
738.000	-8.533	0.100
738.100	0.806	0.100
738.200	-10.744	0.100
738.300	-6.469	0.100
738.400	0.609	0.100
738.500	-11.887	0.100
738.600	-12.962	0.100
738.700	-9.312	0.100
738.800	-5.152	0.100
738.900	-2.186	0.100
739.000	-11.731	0.100
739.100	-2.191	0.100
739.200	-4.474	0.100
739.300	-11.178	0.100
739.400	-6.801	0.100
739.500	-6.967	0.100
739.600	-10.283	0.100
739.700	-9.900	0.100
739.800	6.227	0.100
739.900	-2.860	0.100
740.000	-7.235	0.100
740.100	-5.358	0.100
740.200	-2.646	0.100
740.300	-15.541	0.100
740.400	-3.457	0.100
740.500	-3.634	0.100
740.600	-4.710	0.100
740.700	-7.132	0.100
740.800	-7.263	0.100
740.900	-3.604	0.100
741.000	-8.112	0.100
741.100	-14.647	0.100
741.200	-16.567	0.100
741.300	-17.194	0.100
741.400	-8.691	0.100
741.500	-10.396	0.100
741.600	-3.417	0.100
741.700	5.218	0.100
741.800	-1.509	0.100
741.900	4.446	0.100
742.000	-3.877	0.100
742.100	-10.128	0.100
742.200	-4.230	0.100
742.300	-5.084	0.100
742.400	-5.599	0.100
742.500	-7.021	0.100
742.600	-8.272	0.100
742.700	-2.129	0.100
742.800	-10.536	0.100
742.900	-14.621	0.100
743.000	-9.015	0.100
743.100	8.001	0.100
743.200	-1.368	0.100
743.300	-3.949	0.100
743.400	-19.145	0.100
743.500	-9.633	0.100
743.600	-12.962	0.100
743.700	-13.949	0.100
743.800	-9.116	0.100
743.900	-9.315	0.100
744.000	-10.358	0.100
744.100	-3.166	0.100
744.200	1.209	0.100
744.300	-8.483	0.100
744.400	-1.995	0.100
744.500	-1.945	0.100
744.600	-4.434	0.100
744.700	-4.370	0.100
744.800	-10.953	0.100
744.900	-2.566	0.100
745.000	-7.380	0.100
745.100	-2.864	0.100
745.200	-11.758	0.100
745.300	-9.401	0.100
745.400	-5.421	0.100
745.500	-5.284	0.100
745.600	-5.453	0.100
745.700	-9.190	0.100
745.800	-17.631	0.100
745.900	-11.731	0.100
746.000	0.269	0.100
746.100	3.928	0.100
746.200	-0.838	0.100
746.300	-0.233	0.100
746.400	-17.867	0.100
746.500	-14.711	0.100
746.600	-0.176	0.100
746.700	-10.296	0.100
746.800	-3.809	0.100
746.900	-10.108	0.100
747.000	-9.147	0.100
747.100	-10.551	0.100
747.200	-5.796	0.100
747.300	-0.980	0.100
747.400	-6.642	0.100
747.500	-6.061	0.100
747.600	-0.357	0.100
747.700	-0.974	0.100
747.800	-9.391	0.100
747.900	-11.834	0.100
748.000	-7.803	0.100
748.100	-8.854	0.100
748.200	-16.908	0.100
748.300	-4.186	0.100
748.400	-8.534	0.100
748.500	-5.944	0.100
748.600	-13.707	0.100
748.700	-11.760	0.100
748.800	-7.426	0.100
748.900	-1.519	0.100
749.000	1.609	0.100
749.100	-4.963	0.100
749.200	-4.495	0.100
749.300	-13.105	0.100
749.400	-6.950	0.100
749.500	-7.782	0.100
749.600	-5.792	0.100
749.700	-0.448	0.100
749.800	-8.982	0.100
749.900	6.246	0.100
750.000	-10.537	0.100
750.100	-9.528	0.100
750.200	-17.303	0.100
750.300	-16.934	0.100
750.400	-7.198	0.100
750.500	0.064	0.100
750.600	-10.640	0.100
750.700	-3.851	0.100
750.800	-7.192	0.100
750.900	-13.663	0.100
751.000	-9.727	0.100
751.100	-11.388	0.100
751.200	-6.159	0.100
751.300	-1.946	0.100
751.400	-0.433	0.100
751.500	-1.486	0.100
751.600	-1.706	0.100
751.700	-13.107	0.100
751.800	-10.350	0.100
751.900	-16.720	0.100
752.000	-3.097	0.100
752.100	-6.580	0.100
752.200	-15.382	0.100
752.300	-5.902	0.100
752.400	6.078	0.100
752.500	-5.500	0.100
752.600	-11.075	0.100
752.700	-1.781	0.100
752.800	-4.503	0.100
752.900	-10.246	0.100
753.000	-12.304	0.100
753.100	-18.239	0.100
753.200	-11.352	0.100
753.300	-10.467	0.100
753.400	-6.127	0.100
753.500	-11.335	0.100
753.600	-10.553	0.100
753.700	-15.441	0.100
753.800	5.153	0.100
753.900	-6.974	0.100
754.000	-4.212	0.100
754.100	-8.185	0.100
754.200	-6.477	0.100
754.300	1.057	0.100
754.400	-5.509	0.100
754.500	-7.448	0.100
754.600	-8.958	0.100
754.700	-13.651	0.100
754.800	-8.535	0.100
754.900	-5.565	0.100
755.000	-1.488	0.100
755.100	-9.593	0.100
755.200	-15.611	0.100
755.300	3.113	0.100
755.400	-5.908	0.100
755.500	-16.555	0.100
755.600	-8.747	0.100
755.700	-8.143	0.100
755.800	-12.329	0.100
755.900	-1.241	0.100
756.000	-7.781	0.100
756.100	-4.159	0.100
756.200	-8.629	0.100
756.300	-6.257	0.100
756.400	-12.253	0.100
756.500	-1.647	0.100
756.600	-14.441	0.100
756.700	-12.654	0.100
756.800	-3.480	0.100
756.900	5.289	0.100
757.000	-8.004	0.100
757.100	-11.265	0.100
757.200	-7.049	0.100
757.300	-8.085	0.100
757.400	-7.185	0.100
757.500	-7.923	0.100
757.600	-3.839	0.100
757.700	-12.741	0.100
757.800	-2.557	0.100
757.900	-4.683	0.100
758.000	-9.137	0.100
758.100	-6.181	0.100
758.200	-12.742	0.100
758.300	-6.732	0.100
758.400	-9.956	0.100
758.500	-4.025	0.100
758.600	-2.857	0.100
758.700	-7.677	0.100
758.800	-13.711	0.100
758.900	-12.262	0.100
759.000	-3.169	0.100
759.100	-6.620	0.100
759.200	-10.403	0.100
759.300	-11.301	0.100
759.400	-11.219	0.100
759.500	-12.255	0.100
759.600	-13.080	0.100
759.700	-13.371	0.100
759.800	-7.024	0.100
759.900	-8.905	0.100
760.000	5.324	0.100
760.100	1.908	0.100
760.200	3.905	0.100
760.300	-5.231	0.100
760.400	-14.458	0.100
760.500	-11.531	0.100
760.600	-8.806	0.100
760.700	-4.210	0.100
760.800	5.360	0.100
760.900	-0.153	0.100
761.000	-0.107	0.100
761.100	-1.555	0.100
761.200	-6.117	0.100
761.300	-10.186	0.100
761.400	-13.373	0.100
761.500	-2.163	0.100
761.600	-8.300	0.100
761.700	-7.229	0.100
761.800	-4.059	0.100
761.900	-2.575	0.100
762.000	-6.712	0.100
762.100	-8.518	0.100
762.200	-15.407	0.100
762.300	-11.364	0.100
762.400	-8.065	0.100
762.500	-1.705	0.100
762.600	-7.259	0.100
762.700	-1.457	0.100
762.800	-0.888	0.100
762.900	-3.639	0.100
763.000	-5.251	0.100
763.100	-7.660	0.100
763.200	-9.835	0.100
763.300	-12.640	0.100
763.400	-8.565	0.100
763.500	1.090	0.100
763.600	-14.313	0.100
763.700	-6.812	0.100
763.800	-8.762	0.100
763.900	-3.102	0.100
764.000	-5.218	0.100
764.100	-11.319	0.100
764.200	-21.285	0.100
764.300	-6.994	0.100
764.400	-6.484	0.100
764.500	-5.371	0.100
764.600	-5.103	0.100
764.700	-12.084	0.100
764.800	-11.037	0.100
764.900	-6.102	0.100
765.000	-8.171	0.100
765.100	-15.080	0.100
765.200	-2.111	0.100
765.300	-7.442	0.100
765.400	-6.481	0.100
765.500	4.020	0.100
765.600	0.877	0.100
765.700	-16.859	0.100
765.800	-8.143	0.100
765.900	-14.658	0.100
766.000	-7.261	0.100
766.100	-3.630	0.100
766.200	1.216	0.100
766.300	-7.143	0.100
766.400	-8.651	0.100
766.500	-14.328	0.100
766.600	-7.375	0.100
766.700	-15.189	0.100
766.800	-6.714	0.100
766.900	-1.916	0.100
767.000	-5.810	0.100
767.100	-6.588	0.100
767.200	-0.808	0.100
767.300	-9.784	0.100
767.400	-2.002	0.100
767.500	5.213	0.100
767.600	-6.300	0.100
767.700	-2.184	0.100
767.800	-7.796	0.100
767.900	-6.998	0.100
768.000	-22.240	0.100
768.100	-8.637	0.100
768.200	6.015	0.100
768.300	-4.084	0.100
768.400	-8.584	0.100
768.500	-19.016	0.100
768.600	-5.563	0.100
768.700	-10.040	0.100
768.800	-6.966	0.100
768.900	-2.736	0.100
769.000	-7.865	0.100
769.100	-11.221	0.100
769.200	0.028	0.100
769.300	-7.646	0.100
769.400	-10.060	0.100
769.500	-7.933	0.100
769.600	-14.261	0.100
769.700	-4.548	0.100
769.800	-6.845	0.100
769.900	-2.215	0.100
770.000	-7.300	0.100
770.100	-11.554	0.100
770.200	-3.985	0.100
770.300	-9.114	0.100
770.400	-8.991	0.100
770.500	-9.242	0.100
770.600	-6.686	0.100
770.700	-6.498	0.100
770.800	3.103	0.100
770.900	-5.143	0.100
771.000	-10.320	0.100
771.100	-16.657	0.100
771.200	-1.052	0.100
771.300	5.403	0.100
771.400	-8.020	0.100
771.500	-17.636	0.100
771.600	-4.544	0.100
771.700	4.409	0.100
771.800	-7.188	0.100
771.900	-7.122	0.100
772.000	-3.379	0.100
772.100	-13.521	0.100
772.200	-9.178	0.100
772.300	-3.270	0.100
772.400	-11.140	0.100
772.500	-10.615	0.100
772.600	7.702	0.100
772.700	-0.650	0.100
772.800	-0.156	0.100
772.900	-11.799	0.100
773.000	-8.148	0.100
773.100	-8.229	0.100
773.200	-4.429	0.100
773.300	-15.725	0.100
773.400	-6.469	0.100
773.500	-10.997	0.100
773.600	-5.416	0.100
773.700	-2.222	0.100
773.800	-8.819	0.100
773.900	-5.543	0.100
774.000	-11.922	0.100
774.100	-19.373	0.100
774.200	-9.982	0.100
774.300	2.214	0.100
774.400	-1.134	0.100
774.500	-8.654	0.100
774.600	-6.543	0.100
774.700	-1.610	0.100
774.800	-5.828	0.100
774.900	-2.534	0.100
775.000	0.012	0.100
775.100	-12.460	0.100
775.200	-10.952	0.100
775.300	-8.079	0.100
775.400	2.407	0.100
775.500	-6.485	0.100
775.600	-9.782	0.100
775.700	-8.634	0.100
775.800	-6.219	0.100
775.900	-10.207	0.100
776.000	-5.894	0.100
776.100	-2.800	0.100
776.200	-8.069	0.100
776.300	-8.224	0.100
776.400	-17.980	0.100
776.500	-10.766	0.100
776.600	-6.973	0.100
776.700	-9.049	0.100
776.800	0.883	0.100
776.900	0.715	0.100
777.000	-0.528	0.100
777.100	-7.464	0.100
777.200	-16.269	0.100
777.300	-3.778	0.100
777.400	-10.460	0.100
777.500	-14.221	0.100
777.600	-0.116	0.100
777.700	-2.793	0.100
777.800	-7.225	0.100
777.900	-20.988	0.100
778.000	-4.406	0.100
778.100	-14.255	0.100
778.200	-6.617	0.100
778.300	-10.366	0.100
778.400	1.708	0.100
778.500	-8.703	0.100
778.600	-7.410	0.100
778.700	-4.507	0.100
778.800	-8.864	0.100
778.900	-11.642	0.100
779.000	-3.321	0.100
779.100	-5.989	0.100
779.200	-9.936	0.100
779.300	-3.956	0.100
779.400	-11.607	0.100
779.500	-6.067	0.100
779.600	-7.536	0.100
779.700	-16.945	0.100
779.800	-7.859	0.100
779.900	-7.832	0.100
780.000	-3.027	0.100
780.100	-14.371	0.100
780.200	0.427	0.100
780.300	-5.741	0.100
780.400	-5.799	0.100
780.500	-5.835	0.100
780.600	-7.357	0.100
780.700	-7.803	0.100
780.800	-1.168	0.100
780.900	-3.878	0.100
781.000	0.504	0.100
781.100	-17.186	0.100
781.200	0.118	0.100
781.300	-4.175	0.100
781.400	-4.371	0.100
781.500	-11.920	0.100
781.600	-12.714	0.100
781.700	-11.276	0.100
781.800	5.544	0.100
781.900	-5.668	0.100
782.000	-10.675	0.100
782.100	-10.508	0.100
782.200	-10.337	0.100
782.300	0.755	0.100
782.400	-3.318	0.100
782.500	2.153	0.100
782.600	-5.378	0.100
782.700	0.836	0.100
782.800	6.526	0.100
782.900	1.677	0.100
783.000	5.102	0.100
783.100	-1.964	0.100
783.200	-0.631	0.100
783.300	-11.313	0.100
783.400	2.683	0.100
783.500	-2.812	0.100
783.600	-0.407	0.100
783.700	-0.930	0.100
783.800	-4.381	0.100
783.900	-2.415	0.100
784.000	2.762	0.100
784.100	2.650	0.100
784.200	-2.727	0.100
784.300	-1.535	0.100
784.400	7.856	0.100
784.500	13.697	0.100
784.600	5.437	0.100
784.700	-4.704	0.100
784.800	-2.063	0.100
784.900	-0.615	0.100
785.000	-1.687	0.100
785.100	12.806	0.100
785.200	4.230	0.100
785.300	4.723	0.100
785.400	7.749	0.100
785.500	10.739	0.100
785.600	11.948	0.100
785.700	-11.725	0.100
785.800	3.169	0.100
785.900	2.271	0.100
786.000	-5.064	0.100
786.100	-3.885	0.100
786.200	0.335	0.100
786.300	2.375	0.100
786.400	-6.237	0.100
786.500	7.677	0.100
786.600	7.585	0.100
786.700	-3.404	0.100
786.800	14.892	0.100
786.900	-3.141	0.100
787.000	-0.152	0.100
787.100	3.716	0.100
787.200	0.330	0.100
787.300	9.927	0.100
787.400	-3.279	0.100
787.500	8.865	0.100
787.600	3.753	0.100
787.700	7.433	0.100
787.800	3.785	0.100
787.900	-3.885	0.100
788.000	2.137	0.100
788.100	3.558	0.100
788.200	9.610	0.100
788.300	1.892	0.100
788.400	8.543	0.100
788.500	2.333	0.100
788.600	3.725	0.100
788.700	7.271	0.100
788.800	5.946	0.100
788.900	11.712	0.100
789.000	3.189	0.100
789.100	-2.348	0.100
789.200	5.782	0.100
789.300	4.410	0.100
789.400	4.543	0.100
789.500	6.401	0.100
789.600	6.575	0.100
789.700	6.595	0.100
789.800	-8.173	0.100
789.900	5.260	0.100
790.000	1.397	0.100
790.100	5.410	0.100
790.200	3.926	0.100
790.300	2.042	0.100
790.400	-1.435	0.100
790.500	-3.582	0.100
790.600	1.866	0.100
790.700	12.052	0.100
790.800	10.138	0.100
790.900	3.011	0.100
791.000	-10.382	0.100
791.100	7.044	0.100
791.200	7.080	0.100
791.300	8.605	0.100
791.400	14.455	0.100
791.500	3.850	0.100
791.600	11.714	0.100
791.700	5.517	0.100
791.800	4.071	0.100
791.900	14.265	0.100
792.000	-0.754	0.100
792.100	4.330	0.100
792.200	2.130	0.100
792.300	9.781	0.100
792.400	6.313	0.100
792.500	-2.135	0.100
792.600	1.420	0.100
792.700	15.872	0.100
792.800	12.627	0.100
792.900	0.022	0.100
793.000	-3.032	0.100
793.100	7.463	0.100
793.200	16.818	0.100
793.300	17.002	0.100
793.400	5.802	0.100
793.500	9.360	0.100
793.600	7.109	0.100
793.700	16.657	0.100
793.800	9.405	0.100
793.900	-9.922	0.100
794.000	7.185	0.100
794.100	5.808	0.100
794.200	6.827	0.100
794.300	-3.232	0.100
794.400	4.835	0.100
794.500	17.797	0.100
794.600	7.089	0.100
794.700	12.622	0.100
794.800	7.380	0.100
794.900	12.658	0.100
795.000	5.086	0.100
795.100	1.942	0.100
795.200	3.806	0.100
795.300	6.156	0.100
795.400	4.746	0.100
795.500	7.179	0.100
795.600	3.280	0.100
795.700	17.442	0.100
795.800	9.536	0.100
795.900	16.564	0.100
796.000	5.159	0.100
796.100	11.845	0.100
796.200	6.387	0.100
796.300	6.388	0.100
796.400	8.286	0.100
796.500	7.954	0.100
796.600	9.593	0.100
796.700	21.475	0.100
796.800	4.643	0.100
796.900	11.861	0.100
797.000	16.919	0.100
797.100	7.792	0.100
797.200	0.175	0.100
797.300	8.340	0.100
797.400	2.968	0.100
797.500	6.163	0.100
797.600	17.689	0.100
797.700	20.641	0.100
797.800	4.472	0.100
797.900	8.269	0.100
798.000	7.617	0.100
798.100	11.243	0.100
798.200	4.074	0.100
798.300	8.204	0.100
798.400	8.741	0.100
798.500	6.113	0.100
798.600	15.607	0.100
798.700	12.613	0.100
798.800	23.865	0.100
798.900	6.779	0.100
799.000	5.686	0.100
799.100	21.203	0.100
799.200	30.627	0.100
799.300	14.389	0.100
799.400	0.737	0.100
799.500	4.562	0.100
799.600	8.256	0.100
799.700	13.705	0.100
799.800	5.562	0.100
799.900	8.401	0.100
800.000	7.590	0.100
