time /s	I /nA	E /V
0.100	-6.888	0.100
0.200	-15.732	0.100
0.300	-4.117	0.100
0.400	-8.703	0.100
0.500	-9.289	0.100
0.600	-22.940	0.100
0.700	-10.297	0.100
0.800	-10.843	0.100
0.900	-5.793	0.100
1.000	-15.094	0.100
1.100	-2.320	0.100
1.200	-14.907	0.100
1.300	-7.723	0.100
1.400	-1.649	0.100
1.500	-13.012	0.100
1.600	-10.459	0.100
1.700	-8.388	0.100
1.800	-14.770	0.100
1.900	-21.058	0.100
2.000	-9.919	0.100
2.100	-11.072	0.100
2.200	-9.544	0.100
2.300	-2.347	0.100
2.400	-12.548	0.100
2.500	-21.041	0.100
2.600	-1.141	0.100
2.700	-11.984	0.100
2.800	-21.873	0.100
2.900	-1.010	0.100
3.000	-26.593	0.100
3.100	-4.902	0.100
3.200	-11.900	0.100
3.300	-13.020	0.100
3.400	-4.509	0.100
3.500	-14.223	0.100
3.600	-7.856	0.100
3.700	-4.372	0.100
3.800	-24.658	0.100
3.900	-17.462	0.100
4.000	0.905	0.100
4.100	-13.343	0.100
4.200	-2.144	0.100
4.300	-16.839	0.100
4.400	-18.644	0.100
4.500	-15.952	0.100
4.600	-14.218	0.100
4.700	-1.440	0.100
4.800	-11.718	0.100
4.900	-18.481	0.100
5.000	-20.098	0.100
5.100	-14.379	0.100
5.200	-10.029	0.100
5.300	-3.163	0.100
5.400	-23.042	0.100
5.500	-11.427	0.100
5.600	-2.862	0.100
5.700	-1.361	0.100
5.800	-16.022	0.100
5.900	-11.607	0.100
6.000	-31.231	0.100
6.100	-6.760	0.100
6.200	1.642	0.100
6.300	-17.016	0.100
6.400	-3.345	0.100
6.500	-8.765	0.100
6.600	-9.764	0.100
6.700	-16.277	0.100
6.800	-16.574	0.100
6.900	-16.767	0.100
7.000	-8.097	0.100
7.100	-1.766	0.100
7.200	-6.004	0.100
7.300	-18.017	0.100
7.400	-19.396	0.100
7.500	-7.236	0.100
7.600	-5.927	0.100
7.700	-18.133	0.100
7.800	-1.649	0.100
7.900	-15.837	0.100
8.000	-19.965	0.100
8.100	-9.727	0.100
8.200	-2.741	0.100
8.300	-9.012	0.100
8.400	-22.475	0.100
8.500	-8.619	0.100
8.600	-7.862	0.100
8.700	-16.496	0.100
8.800	-17.251	0.100
8.900	-20.392	0.100
9.000	-12.419	0.100
9.100	-18.491	0.100
9.200	-23.290	0.100
9.300	-11.097	0.100
9.400	0.754	0.100
9.500	-5.362	0.100
9.600	-10.682	0.100
9.700	-12.840	0.100
9.800	-14.912	0.100
9.900	-4.233	0.100
10.000	-11.085	0.100
10.100	-11.943	0.100
10.200	-10.159	0.100
10.300	-8.815	0.100
10.400	-4.564	0.100
10.500	-7.867	0.100
10.600	-5.710	0.100
10.700	-15.509	0.100
10.800	-8.021	0.100
10.900	-3.717	0.100
11.000	-18.614	0.100
11.100	-22.169	0.100
11.200	-9.775	0.100
11.300	-18.004	0.100
11.400	-17.979	0.100
11.500	-15.862	0.100
11.600	-11.376	0.100
11.700	-7.554	0.100
11.800	0.935	0.100
11.900	-10.324	0.100
12.000	-19.026	0.100
12.100	1.657	0.100
12.200	-12.977	0.100
12.300	-17.963	0.100
12.400	-21.187	0.100
12.500	-12.816	0.100
12.600	-0.769	0.100
12.700	-18.556	0.100
12.800	-6.348	0.100
12.900	-13.809	0.100
13.000	-8.580	0.100
13.100	-8.257	0.100
13.200	-11.890	0.100
13.300	-6.214	0.100
13.400	-17.935	0.100
13.500	0.233	0.100
13.600	-14.059	0.100
13.700	-13.352	0.100
13.800	-2.127	0.100
13.900	-7.850	0.100
14.000	-12.558	0.100
14.100	1.228	0.100
14.200	-16.147	0.100
14.300	-15.457	0.100
14.400	-10.292	0.100
14.500	-20.099	0.100
14.600	-2.911	0.100
14.700	-4.845	0.100
14.800	-5.211	0.100
14.900	-16.273	0.100
15.000	-14.467	0.100
15.100	-16.066	0.100
15.200	-12.301	0.100
15.300	-2.620	0.100
15.400	-11.779	0.100
15.500	-21.007	0.100
15.600	-21.702	0.100
15.700	-14.320	0.100
15.800	-15.216	0.100
15.900	-7.614	0.100
16.000	-10.572	0.100
16.100	4.737	0.100
16.200	-5.645	0.100
16.300	-17.588	0.100
16.400	-9.586	0.100
16.500	2.920	0.100
16.600	-14.932	0.100
16.700	-10.593	0.100
16.800	-14.658	0.100
16.900	-25.495	0.100
17.000	1.058	0.100
17.100	4.902	0.100
17.200	-20.718	0.100
17.300	-5.141	0.100
17.400	-8.438	0.100
17.500	-12.093	0.100
17.600	-12.050	0.100
17.700	-16.781	0.100
17.800	-17.705	0.100
17.900	-7.097	0.100
18.000	-13.392	0.100
18.100	-7.591	0.100
18.200	-13.199	0.100
18.300	-8.391	0.100
18.400	-0.284	0.100
18.500	-5.065	0.100
18.600	-13.663	0.100
18.700	-24.347	0.100
18.800	-20.777	0.100
18.900	-19.024	0.100
19.000	-9.962	0.100
19.100	-11.160	0.100
19.200	-6.360	0.100
19.300	-14.128	0.100
19.400	-7.729	0.100
19.500	-8.939	0.100
19.600	-11.988	0.100
19.700	0.351	0.100
19.800	-6.232	0.100
19.900	-3.683	0.100
20.000	-12.003	0.100
20.100	-6.949	0.100
20.200	-13.609	0.100
20.300	-5.737	0.100
20.400	-4.456	0.100
20.500	-27.222	0.100
20.600	-10.261	0.100
20.700	-16.464	0.100
20.800	9.003	0.100
20.900	-1.887	0.100
21.000	0.462	0.100
21.100	0.562	0.100
21.200	-23.767	0.100
21.300	-3.001	0.100
21.400	-11.129	0.100
21.500	-6.604	0.100
21.600	-9.062	0.100
21.700	-8.294	0.100
21.800	-6.712	0.100
21.900	-1.678	0.100
22.000	-4.793	0.100
22.100	-18.146	0.100
22.200	-17.216	0.100
22.300	-4.583	0.100
22.400	3.231	0.100
22.500	-19.605	0.100
22.600	-13.344	0.100
22.700	-12.832	0.100
22.800	-0.875	0.100
22.900	-7.576	0.100
23.000	-9.399	0.100
23.100	-9.864	0.100
23.200	-13.364	0.100
23.300	-4.195	0.100
23.400	-2.745	0.100
23.500	-6.088	0.100
23.600	-10.927	0.100
23.700	-1.762	0.100
23.800	-1.695	0.100
23.900	-10.019	0.100
24.000	-11.000	0.100
24.100	-9.138	0.100
24.200	-5.149	0.100
24.300	-9.783	0.100
24.400	-12.688	0.100
24.500	-12.915	0.100
24.600	1.709	0.100
24.700	-23.351	0.100
24.800	-15.411	0.100
24.900	-21.993	0.100
25.000	2.141	0.100
25.100	-4.286	0.100
25.200	-14.543	0.100
25.300	-4.025	0.100
25.400	-22.017	0.100
25.500	-19.208	0.100
25.600	1.917	0.100
25.700	-3.389	0.100
25.800	-10.695	0.100
25.900	-6.397	0.100
26.000	-17.169	0.100
26.100	-12.262	0.100
26.200	-16.021	0.100
26.300	-10.297	0.100
26.400	-9.740	0.100
26.500	-8.328	0.100
26.600	-8.178	0.100
26.700	-23.345	0.100
26.800	-11.551	0.100
26.900	-7.541	0.100
27.000	-12.215	0.100
27.100	-3.667	0.100
27.200	-0.728	0.100
27.300	-15.471	0.100
27.400	-5.700	0.100
27.500	-7.692	0.100
27.600	-16.008	0.100
27.700	-10.984	0.100
27.800	-0.781	0.100
27.900	-9.860	0.100
28.000	-8.378	0.100
28.100	-34.192	0.100
28.200	-12.333	0.100
28.300	0.750	0.100
28.400	6.919	0.100
28.500	-21.433	0.100
28.600	-7.874	0.100
28.700	-3.709	0.100
28.800	-4.160	0.100
28.900	-4.214	0.100
29.000	-12.417	0.100
29.100	-15.713	0.100
29.200	-7.185	0.100
29.300	-8.493	0.100
29.400	-4.729	0.100
29.500	-18.864	0.100
29.600	-14.952	0.100
29.700	-27.389	0.100
29.800	2.194	0.100
29.900	-16.430	0.100
30.000	-6.097	0.100
30.100	-6.566	0.100
30.200	-6.143	0.100
30.300	-5.312	0.100
30.400	-13.127	0.100
30.500	-10.898	0.100
30.600	-3.914	0.100
30.700	-2.900	0.100
30.800	-6.873	0.100
30.900	-0.530	0.100
31.000	-0.596	0.100
31.100	-11.861	0.100
31.200	-7.258	0.100
31.300	-4.225	0.100
31.400	-4.525	0.100
31.500	-7.115	0.100
31.600	-8.643	0.100
31.700	-11.688	0.100
31.800	-5.669	0.100
31.900	5.946	0.100
32.000	-9.155	0.100
32.100	3.777	0.100
32.200	-8.842	0.100
32.300	-9.072	0.100
32.400	-0.735	0.100
32.500	-11.347	0.100
32.600	-9.717	0.100
32.700	-6.581	0.100
32.800	-4.034	0.100
32.900	7.684	0.100
33.000	-15.091	0.100
33.100	-0.076	0.100
33.200	4.721	0.100
33.300	-11.921	0.100
33.400	-5.879	0.100
33.500	-12.260	0.100
33.600	-8.930	0.100
33.700	-5.402	0.100
33.800	-1.064	0.100
33.900	10.649	0.100
34.000	-3.111	0.100
34.100	-0.494	0.100
34.200	7.083	0.100
34.300	-13.055	0.100
34.400	-6.771	0.100
34.500	-12.100	0.100
34.600	8.594	0.100
34.700	-9.379	0.100
34.800	-9.224	0.100
34.900	-9.739	0.100
35.000	3.355	0.100
35.100	-1.955	0.100
35.200	-3.552	0.100
35.300	6.927	0.100
35.400	0.432	0.100
35.500	-8.789	0.100
35.600	-8.336	0.100
35.700	1.710	0.100
35.800	3.070	0.100
35.900	-1.461	0.100
36.000	-17.007	0.100
36.100	2.583	0.100
36.200	-4.684	0.100
36.300	0.866	0.100
36.400	-0.472	0.100
36.500	5.145	0.100
36.600	-3.350	0.100
36.700	-2.234	0.100
36.800	-8.078	0.100
36.900	0.733	0.100
37.000	4.225	0.100
37.100	-12.139	0.100
37.200	-9.307	0.100
37.300	1.315	0.100
37.400	3.928	0.100
37.500	-2.738	0.100
37.600	17.212	0.100
37.700	-10.492	0.100
37.800	-3.871	0.100
37.900	-7.214	0.100
38.000	-15.724	0.100
38.100	-2.525	0.100
38.200	7.993	0.100
38.300	2.201	0.100
38.400	4.989	0.100
38.500	-4.312	0.100
38.600	-0.261	0.100
38.700	-1.372	0.100
38.800	1.061	0.100
38.900	13.535	0.100
39.000	-20.605	0.100
39.100	-13.975	0.100
39.200	4.700	0.100
39.300	8.218	0.100
39.400	3.858	0.100
39.500	0.380	0.100
39.600	5.783	0.100
39.700	-10.442	0.100
39.800	3.364	0.100
39.900	-4.752	0.100
40.000	2.098	0.100
40.100	-1.674	0.100
40.200	-10.665	0.100
40.300	-9.773	0.100
40.400	-5.865	0.100
40.500	-4.490	0.100
40.600	-6.932	0.100
40.700	9.524	0.100
40.800	-8.211	0.100
40.900	4.601	0.100
41.000	-0.712	0.100
41.100	-6.153	0.100
41.200	10.485	0.100
41.300	-11.661	0.100
41.400	-9.633	0.100
41.500	-5.460	0.100
41.600	-8.532	0.100
41.700	8.095	0.100
41.800	9.547	0.100
41.900	-8.863	0.100
42.000	0.456	0.100
42.100	1.888	0.100
42.200	-6.356	0.100
42.300	0.431	0.100
42.400	6.624	0.100
42.500	-4.511	0.100
42.600	-4.706	0.100
42.700	7.399	0.100
42.800	0.476	0.100
42.900	-3.958	0.100
43.000	6.075	0.100
43.100	-6.232	0.100
43.200	0.566	0.100
43.300	0.317	0.100
43.400	-6.791	0.100
43.500	-9.490	0.100
43.600	-4.816	0.100
43.700	13.282	0.100
43.800	-3.316	0.100
43.900	-8.133	0.100
44.000	3.108	0.100
44.100	-8.734	0.100
44.200	1.636	0.100
44.300	4.841	0.100
44.400	4.333	0.100
44.500	0.667	0.100
44.600	7.615	0.100
44.700	2.090	0.100
44.800	-9.139	0.100
44.900	6.382	0.100
45.000	12.043	0.100
45.100	1.450	0.100
45.200	-3.661	0.100
45.300	0.576	0.100
45.400	3.716	0.100
45.500	-1.634	0.100
45.600	-2.063	0.100
45.700	-3.000	0.100
45.800	0.840	0.100
45.900	3.521	0.100
46.000	-2.199	0.100
46.100	9.302	0.100
46.200	2.932	0.100
46.300	-9.169	0.100
46.400	15.907	0.100
46.500	-5.053	0.100
46.600	0.384	0.100
46.700	10.032	0.100
46.800	-6.446	0.100
46.900	-14.834	0.100
47.000	16.863	0.100
47.100	11.298	0.100
47.200	-0.068	0.100
47.300	5.045	0.100
47.400	2.881	0.100
47.500	-9.285	0.100
47.600	5.926	0.100
47.700	-3.104	0.100
47.800	-0.271	0.100
47.900	-4.277	0.100
48.000	-8.108	0.100
48.100	-1.907	0.100
48.200	13.085	0.100
48.300	-5.547	0.100
48.400	5.134	0.100
48.500	1.781	0.100
48.600	3.333	0.100
48.700	4.293	0.100
48.800	4.109	0.100
48.900	9.224	0.100
49.000	1.076	0.100
49.100	1.966	0.100
49.200	3.380	0.100
49.300	-6.651	0.100
49.400	6.431	0.100
49.500	16.897	0.100
49.600	8.613	0.100
49.700	22.626	0.100
49.800	0.907	0.100
49.900	4.023	0.100
50.000	-12.683	0.100
50.100	8.638	0.100
50.200	-0.092	0.100
50.300	8.947	0.100
50.400	-8.009	0.100
50.500	10.658	0.100
50.600	9.044	0.100
50.700	-6.397	0.100
50.800	3.969	0.100
50.900	1.127	0.100
51.000	7.344	0.100
51.100	-11.778	0.100
51.200	20.864	0.100
51.300	6.097	0.100
51.400	7.208	0.100
51.500	-7.791	0.100
51.600	-0.729	0.100
51.700	1.639	0.100
51.800	5.430	0.100
51.900	-0.680	0.100
52.000	-2.515	0.100
52.100	0.476	0.100
52.200	-2.397	0.100
52.300	2.359	0.100
52.400	9.704	0.100
52.500	9.234	0.100
52.600	-6.281	0.100
52.700	3.122	0.100
52.800	2.636	0.100
52.900	2.652	0.100
53.000	0.379	0.100
53.100	-0.310	0.100
53.200	9.149	0.100
53.300	15.997	0.100
53.400	5.283	0.100
53.500	0.372	0.100
53.600	8.637	0.100
53.700	4.545	0.100
53.800	3.266	0.100
53.900	-2.424	0.100
54.000	-1.580	0.100
54.100	-0.932	0.100
54.200	17.875	0.100
54.300	12.057	0.100
54.400	-11.082	0.100
54.500	4.581	0.100
54.600	3.403	0.100
54.700	0.376	0.100
54.800	-0.279	0.100
54.900	-0.622	0.100
55.000	1.155	0.100
55.100	7.260	0.100
55.200	15.606	0.100
55.300	10.119	0.100
55.400	2.279	0.100
55.500	0.362	0.100
55.600	10.210	0.100
55.700	11.592	0.100
55.800	8.044	0.100
55.900	1.884	0.100
56.000	0.667	0.100
56.100	14.873	0.100
56.200	9.630	0.100
56.300	-4.789	0.100
56.400	7.672	0.100
56.500	6.380	0.100
56.600	3.163	0.100
56.700	2.340	0.100
56.800	5.040	0.100
56.900	5.679	0.100
57.000	-4.850	0.100
57.100	-3.065	0.100
57.200	10.348	0.100
57.300	3.252	0.100
57.400	4.429	0.100
57.500	0.628	0.100
57.600	19.917	0.100
57.700	6.292	0.100
57.800	-7.401	0.100
57.900	5.389	0.100
58.000	11.699	0.100
58.100	8.801	0.100
58.200	17.943	0.100
58.300	10.557	0.100
58.400	-8.408	0.100
58.500	-0.660	0.100
58.600	-4.229	0.100
58.700	-4.683	0.100
58.800	14.321	0.100
58.900	18.131	0.100
59.000	3.828	0.100
59.100	4.844	0.100
59.200	12.179	0.100
59.300	2.081	0.100
59.400	1.871	0.100
59.500	-2.112	0.100
59.600	18.135	0.100
59.700	0.593	0.100
59.800	9.362	0.100
59.900	18.968	0.100
60.000	-0.064	0.100
60.100	-11.318	0.100
60.200	3.257	0.100
60.300	0.248	0.100
60.400	4.658	0.100
60.500	1.295	0.100
60.600	-8.180	0.100
60.700	12.049	0.100
60.800	1.579	0.100
60.900	5.785	0.100
61.000	14.311	0.100
61.100	9.743	0.100
61.200	-4.684	0.100
61.300	3.981	0.100
61.400	12.467	0.100
61.500	12.313	0.100
61.600	0.585	0.100
61.700	12.024	0.100
61.800	8.143	0.100
61.900	2.428	0.100
62.000	5.548	0.100
62.100	15.095	0.100
62.200	7.462	0.100
62.300	1.515	0.100
62.400	4.320	0.100
62.500	10.864	0.100
62.600	-5.900	0.100
62.700	7.209	0.100
62.800	11.485	0.100
62.900	2.042	0.100
63.000	3.221	0.100
63.100	19.558	0.100
63.200	17.466	0.100
63.300	7.161	0.100
63.400	0.678	0.100
63.500	3.242	0.100
63.600	14.797	0.100
63.700	4.069	0.100
63.800	7.372	0.100
63.900	6.188	0.100
64.000	7.183	0.100
64.100	-0.947	0.100
64.200	7.198	0.100
64.300	9.681	0.100
64.400	9.848	0.100
64.500	-2.874	0.100
64.600	10.597	0.100
64.700	10.628	0.100
64.800	1.509	0.100
64.900	1.545	0.100
65.000	6.476	0.100
65.100	23.414	0.100
65.200	9.444	0.100
65.300	4.020	0.100
65.400	9.703	0.100
65.500	5.709	0.100
65.600	6.931	0.100
65.700	14.659	0.100
65.800	8.669	0.100
65.900	10.065	0.100
66.000	5.767	0.100
66.100	-1.882	0.100
66.200	3.595	0.100
66.300	15.118	0.100
66.400	9.227	0.100
66.500	1.536	0.100
66.600	9.303	0.100
66.700	13.227	0.100
66.800	-9.671	0.100
66.900	8.863	0.100
67.000	-6.712	0.100
67.100	16.073	0.100
67.200	5.506	0.100
67.300	4.104	0.100
67.400	0.683	0.100
67.500	20.139	0.100
67.600	1.363	0.100
67.700	9.908	0.100
67.800	18.224	0.100
67.900	0.314	0.100
68.000	8.604	0.100
68.100	10.357	0.100
68.200	0.453	0.100
68.300	3.642	0.100
68.400	14.626	0.100
68.500	13.489	0.100
68.600	2.414	0.100
68.700	20.122	0.100
68.800	3.654	0.100
68.900	14.631	0.100
69.000	2.147	0.100
69.100	13.403	0.100
69.200	-5.789	0.100
69.300	4.463	0.100
69.400	1.879	0.100
69.500	11.213	0.100
69.600	0.684	0.100
69.700	8.500	0.100
69.800	9.387	0.100
69.900	4.704	0.100
70.000	7.763	0.100
70.100	-10.924	0.100
70.200	10.797	0.100
70.300	24.176	0.100
70.400	3.039	0.100
70.500	3.790	0.100
70.600	-1.799	0.100
70.700	20.154	0.100
70.800	2.998	0.100
70.900	16.528	0.100
71.000	6.283	0.100
71.100	-6.394	0.100
71.200	3.728	0.100
71.300	8.264	0.100
71.400	13.572	0.100
71.500	8.480	0.100
71.600	10.410	0.100
71.700	7.569	0.100
71.800	6.056	0.100
71.900	13.776	0.100
72.000	16.865	0.100
72.100	-1.864	0.100
72.200	13.537	0.100
72.300	19.562	0.100
72.400	11.425	0.100
72.500	-3.222	0.100
72.600	7.880	0.100
72.700	9.704	0.100
72.800	12.515	0.100
72.900	13.086	0.100
73.000	22.110	0.100
73.100	3.418	0.100
73.200	11.551	0.100
73.300	9.280	0.100
73.400	2.234	0.100
73.500	10.066	0.100
73.600	-4.419	0.100
73.700	8.091	0.100
73.800	9.529	0.100
73.900	2.154	0.100
74.000	9.360	0.100
74.100	6.476	0.100
74.200	7.418	0.100
74.300	15.816	0.100
74.400	4.263	0.100
74.500	1.473	0.100
74.600	4.770	0.100
74.700	-4.378	0.100
74.800	19.647	0.100
74.900	6.774	0.100
75.000	14.863	0.100
75.100	-2.040	0.100
75.200	17.658	0.100
75.300	3.390	0.100
75.400	5.665	0.100
75.500	-1.986	0.100
75.600	16.534	0.100
75.700	15.788	0.100
75.800	10.811	0.100
75.900	1.465	0.100
76.000	13.334	0.100
76.100	4.652	0.100
76.200	2.931	0.100
76.300	11.115	0.100
76.400	12.362	0.100
76.500	10.825	0.100
76.600	12.122	0.100
76.700	7.784	0.100
76.800	11.024	0.100
76.900	8.701	0.100
77.000	-3.798	0.100
77.100	17.021	0.100
77.200	11.724	0.100
77.300	12.056	0.100
77.400	9.677	0.100
77.500	9.874	0.100
77.600	7.327	0.100
77.700	6.542	0.100
77.800	6.131	0.100
77.900	13.871	0.100
78.000	12.880	0.100
78.100	2.371	0.100
78.200	11.068	0.100
78.300	9.015	0.100
78.400	9.248	0.100
78.500	23.906	0.100
78.600	3.479	0.100
78.700	10.545	0.100
78.800	17.978	0.100
78.900	12.307	0.100
79.000	-10.528	0.100
79.100	11.709	0.100
79.200	6.841	0.100
79.300	6.653	0.100
79.400	-2.121	0.100
79.500	15.577	0.100
79.600	1.261	0.100
79.700	15.947	0.100
79.800	-1.345	0.100
79.900	18.636	0.100
80.000	5.113	0.100
80.100	9.204	0.100
80.200	13.472	0.100
80.300	4.036	0.100
80.400	21.340	0.100
80.500	13.176	0.100
80.600	11.385	0.100
80.700	3.434	0.100
80.800	-4.049	0.100
80.900	2.077	0.100
81.000	15.886	0.100
81.100	1.620	0.100
81.200	14.835	0.100
81.300	10.505	0.100
81.400	14.768	0.100
81.500	-0.201	0.100
81.600	1.280	0.100
81.700	8.800	0.100
81.800	21.322	0.100
81.900	16.195	0.100
82.000	13.291	0.100
82.100	0.027	0.100
82.200	8.188	0.100
82.300	-0.702	0.100
82.400	12.467	0.100
82.500	12.833	0.100
82.600	4.989	0.100
82.700	1.101	0.100
82.800	13.773	0.100
82.900	17.157	0.100
83.000	14.384	0.100
83.100	5.089	0.100
83.200	14.359	0.100
83.300	10.546	0.100
83.400	5.374	0.100
83.500	7.825	0.100
83.600	6.903	0.100
83.700	18.862	0.100
83.800	11.877	0.100
83.900	9.436	0.100
84.000	0.290	0.100
84.100	18.773	0.100
84.200	4.484	0.100
84.300	3.263	0.100
84.400	15.131	0.100
84.500	8.854	0.100
84.600	0.321	0.100
84.700	15.690	0.100
84.800	18.635	0.100
84.900	4.003	0.100
85.000	16.897	0.100
85.100	14.038	0.100
85.200	1.289	0.100
85.300	12.736	0.100
85.400	15.676	0.100
85.500	7.447	0.100
85.600	11.952	0.100
85.700	0.540	0.100
85.800	8.856	0.100
85.900	14.573	0.100
86.000	-5.465	0.100
86.100	-0.898	0.100
86.200	20.098	0.100
86.300	9.037	0.100
86.400	-1.801	0.100
86.500	13.900	0.100
86.600	0.141	0.100
86.700	17.738	0.100
86.800	5.030	0.100
86.900	14.697	0.100
87.000	5.962	0.100
87.100	6.914	0.100
87.200	-5.368	0.100
87.300	23.723	0.100
87.400	9.963	0.100
87.500	8.380	0.100
87.600	22.909	0.100
87.700	-10.315	0.100
87.800	0.059	0.100
87.900	24.339	0.100
88.000	12.036	0.100
88.100	21.635	0.100
88.200	22.352	0.100
88.300	17.849	0.100
88.400	3.486	0.100
88.500	-4.421	0.100
88.600	5.589	0.100
88.700	20.687	0.100
88.800	7.081	0.100
88.900	7.663	0.100
89.000	11.162	0.100
89.100	9.382	0.100
89.200	6.716	0.100
89.300	18.462	0.100
89.400	12.076	0.100
89.500	11.750	0.100
89.600	9.027	0.100
89.700	-2.491	0.100
89.800	2.234	0.100
89.900	16.531	0.100
90.000	3.751	0.100
90.100	21.088	0.100
90.200	19.021	0.100
90.300	7.102	0.100
90.400	22.018	0.100
90.500	7.697	0.100
90.600	6.366	0.100
90.700	-0.217	0.100
90.800	0.417	0.100
90.900	5.355	0.100
91.000	6.140	0.100
91.100	12.313	0.100
91.200	10.069	0.100
91.300	-1.288	0.100
91.400	10.067	0.100
91.500	10.064	0.100
91.600	4.750	0.100
91.700	1.612	0.100
91.800	10.041	0.100
91.900	4.000	0.100
92.000	0.728	0.100
92.100	9.642	0.100
92.200	6.801	0.100
92.300	-0.996	0.100
92.400	2.886	0.100
92.500	16.506	0.100
92.600	23.626	0.100
92.700	3.848	0.100
92.800	8.859	0.100
92.900	2.460	0.100
93.000	6.410	0.100
93.100	9.153	0.100
93.200	13.581	0.100
93.300	-1.987	0.100
93.400	7.128	0.100
93.500	3.932	0.100
93.600	14.109	0.100
93.700	10.339	0.100
93.800	7.762	0.100
93.900	7.721	0.100
94.000	7.738	0.100
94.100	8.254	0.100
94.200	-4.087	0.100
94.300	6.996	0.100
94.400	12.475	0.100
94.500	13.360	0.100
94.600	-2.300	0.100
94.700	5.558	0.100
94.800	-1.172	0.100
94.900	-0.157	0.100
95.000	3.250	0.100
95.100	25.140	0.100
95.200	11.775	0.100
95.300	10.404	0.100
95.400	6.446	0.100
95.500	0.219	0.100
95.600	-1.337	0.100
95.700	6.790	0.100
95.800	0.659	0.100
95.900	9.080	0.100
96.000	14.045	0.100
96.100	0.748	0.100
96.200	7.888	0.100
96.300	6.077	0.100
96.400	10.074	0.100
96.500	-1.694	0.100
96.600	-0.318	0.100
96.700	-2.785	0.100
96.800	9.104	0.100
96.900	1.276	0.100
97.000	5.355	0.100
97.100	7.926	0.100
97.200	11.206	0.100
97.300	-1.706	0.100
97.400	2.984	0.100
97.500	-3.086	0.100
97.600	1.471	0.100
97.700	7.348	0.100
97.800	2.073	0.100
97.900	-7.859	0.100
98.000	-4.010	0.100
98.100	8.993	0.100
98.200	21.965	0.100
98.300	4.041	0.100
98.400	8.148	0.100
98.500	-0.623	0.100
98.600	11.817	0.100
98.700	11.597	0.100
98.800	5.101	0.100
98.900	-13.501	0.100
99.000	3.202	0.100
99.100	10.121	0.100
99.200	0.231	0.100
99.300	0.959	0.100
99.400	9.332	0.100
99.500	0.858	0.100
99.600	0.861	0.100
99.700	7.313	0.100
99.800	6.871	0.100
99.900	-12.521	0.100
100.000	-5.548	0.100
100.100	22.661	0.100
100.200	2.380	0.100
100.300	-2.321	0.100
100.400	-0.389	0.100
100.500	-0.399	0.100
100.600	3.855	0.100
100.700	2.608	0.100
100.800	6.242	0.100
100.900	8.171	0.100
101.000	4.244	0.100
101.100	7.404	0.100
101.200	18.194	0.100
101.300	1.280	0.100
101.400	11.792	0.100
101.500	-2.254	0.100
101.600	5.002	0.100
101.700	1.309	0.100
101.800	2.429	0.100
101.900	-1.374	0.100
102.000	11.019	0.100
102.100	12.496	0.100
102.200	7.627	0.100
102.300	1.594	0.100
102.400	-3.402	0.100
102.500	3.540	0.100
102.600	2.813	0.100
102.700	6.719	0.100
102.800	1.867	0.100
102.900	-7.984	0.100
103.000	-1.816	0.100
103.100	1.255	0.100
103.200	-8.956	0.100
103.300	7.225	0.100
103.400	8.282	0.100
103.500	-10.179	0.100
103.600	10.613	0.100
103.700	-0.619	0.100
103.800	2.082	0.100
103.900	-0.166	0.100
104.000	5.115	0.100
104.100	-3.183	0.100
104.200	2.289	0.100
104.300	7.953	0.100
104.400	-2.395	0.100
104.500	-5.999	0.100
104.600	9.372	0.100
104.700	8.389	0.100
104.800	2.254	0.100
104.900	18.524	0.100
105.000	16.902	0.100
105.100	-1.929	0.100
105.200	-3.259	0.100
105.300	-3.406	0.100
105.400	4.757	0.100
105.500	6.178	0.100
105.600	8.999	0.100
105.700	-1.587	0.100
105.800	-4.867	0.100
105.900	6.902	0.100
106.000	-6.628	0.100
106.100	4.648	0.100
106.200	1.386	0.100
106.300	5.941	0.100
106.400	-8.982	0.100
106.500	7.306	0.100
106.600	0.578	0.100
106.700	-17.316	0.100
106.800	2.730	0.100
106.900	1.479	0.100
107.000	3.134	0.100
107.100	0.976	0.100
107.200	10.730	0.100
107.300	1.276	0.100
107.400	4.148	0.100
107.500	7.302	0.100
107.600	-8.761	0.100
107.700	9.625	0.100
107.800	-3.035	0.100
107.900	9.934	0.100
108.000	-13.900	0.100
108.100	0.223	0.100
108.200	7.149	0.100
108.300	1.023	0.100
108.400	2.221	0.100
108.500	7.676	0.100
108.600	-7.467	0.100
108.700	4.358	0.100
108.800	0.146	0.100
108.900	8.485	0.100
109.000	-7.300	0.100
109.100	-0.765	0.100
109.200	0.319	0.100
109.300	8.726	0.100
109.400	-14.817	0.100
109.500	4.942	0.100
109.600	2.670	0.100
109.700	-14.945	0.100
109.800	13.066	0.100
109.900	6.882	0.100
110.000	6.515	0.100
110.100	-12.699	0.100
110.200	7.440	0.100
110.300	3.606	0.100
110.400	6.362	0.100
110.500	2.519	0.100
110.600	-4.917	0.100
110.700	14.842	0.100
110.800	-7.531	0.100
110.900	-1.477	0.100
111.000	-2.841	0.100
111.100	5.885	0.100
111.200	-18.911	0.100
111.300	0.700	0.100
111.400	16.465	0.100
111.500	-1.882	0.100
111.600	1.768	0.100
111.700	2.949	0.100
111.800	-12.322	0.100
111.900	-6.210	0.100
112.000	8.290	0.100
112.100	4.668	0.100
112.200	1.471	0.100
112.300	2.449	0.100
112.400	-2.261	0.100
112.500	-11.009	0.100
112.600	3.243	0.100
112.700	-3.590	0.100
112.800	0.270	0.100
112.900	-10.061	0.100
113.000	-8.025	0.100
113.100	-0.284	0.100
113.200	-6.234	0.100
113.300	2.242	0.100
113.400	20.322	0.100
113.500	-2.823	0.100
113.600	-13.376	0.100
113.700	10.196	0.100
113.800	-15.320	0.100
113.900	-0.908	0.100
114.000	-3.961	0.100
114.100	6.123	0.100
114.200	-6.320	0.100
114.300	1.559	0.100
114.400	-2.112	0.100
114.500	-7.922	0.100
114.600	2.269	0.100
114.700	-1.269	0.100
114.800	-5.341	0.100
114.900	-9.316	0.100
115.000	3.362	0.100
115.100	4.251	0.100
115.200	9.066	0.100
115.300	1.644	0.100
115.400	-13.992	0.100
115.500	8.400	0.100
115.600	-5.926	0.100
115.700	-6.444	0.100
115.800	0.340	0.100
115.900	12.159	0.100
116.000	-3.401	0.100
116.100	-6.381	0.100
116.200	-6.769	0.100
116.300	-22.355	0.100
116.400	1.140	0.100
116.500	-6.855	0.100
116.600	6.333	0.100
116.700	-8.601	0.100
116.800	-3.155	0.100
116.900	1.160	0.100
117.000	-3.718	0.100
117.100	-10.769	0.100
117.200	0.996	0.100
117.300	5.325	0.100
117.400	8.812	0.100
117.500	-7.065	0.100
117.600	3.137	0.100
117.700	-2.860	0.100
117.800	-9.932	0.100
117.900	-5.823	0.100
118.000	-8.123	0.100
118.100	-0.815	0.100
118.200	4.317	0.100
118.300	0.435	0.100
118.400	-0.612	0.100
118.500	2.271	0.100
118.600	-9.455	0.100
118.700	3.499	0.100
118.800	-4.003	0.100
118.900	-10.162	0.100
119.000	-8.074	0.100
119.100	-10.470	0.100
119.200	13.363	0.100
119.300	-0.026	0.100
119.400	-8.965	0.100
119.500	-8.248	0.100
119.600	-6.020	0.100
119.700	3.800	0.100
119.800	-8.017	0.100
119.900	0.102	0.100
120.000	-10.747	0.100
120.100	-1.081	0.100
120.200	7.343	0.100
120.300	3.173	0.100
120.400	11.734	0.100
120.500	3.989	0.100
120.600	-16.643	0.100
120.700	-9.019	0.100
120.800	-7.529	0.100
120.900	-5.129	0.100
121.000	-6.749	0.100
121.100	-7.024	0.100
121.200	7.022	0.100
121.300	-1.037	0.100
121.400	0.372	0.100
121.500	-2.323	0.100
121.600	-3.773	0.100
121.700	-4.200	0.100
121.800	2.225	0.100
121.900	-6.350	0.100
122.000	3.381	0.100
122.100	-10.620	0.100
122.200	3.658	0.100
122.300	-6.358	0.100
122.400	-16.827	0.100
122.500	4.460	0.100
122.600	-10.224	0.100
122.700	9.230	0.100
122.800	-11.076	0.100
122.900	6.420	0.100
123.000	1.212	0.100
123.100	-5.710	0.100
123.200	6.972	0.100
123.300	4.846	0.100
123.400	-12.886	0.100
123.500	8.136	0.100
123.600	-13.010	0.100
123.700	-12.220	0.100
123.800	-11.834	0.100
123.900	-0.410	0.100
124.000	-10.088	0.100
124.100	-2.133	0.100
124.200	-6.919	0.100
124.300	-0.271	0.100
124.400	-14.669	0.100
124.500	-1.696	0.100
124.600	7.476	0.100
124.700	-3.853	0.100
124.800	-2.766	0.100
124.900	-0.320	0.100
125.000	-4.245	0.100
125.100	-9.188	0.100
125.200	-13.624	0.100
125.300	3.636	0.100
125.400	-1.322	0.100
125.500	-6.038	0.100
125.600	-4.023	0.100
125.700	2.829	0.100
125.800	-6.517	0.100
125.900	-6.488	0.100
126.000	-6.419	0.100
126.100	-2.883	0.100
126.200	-17.800	0.100
126.300	3.329	0.100
126.400	1.681	0.100
126.500	-11.999	0.100
126.600	-2.195	0.100
126.700	-6.439	0.100
126.800	-1.359	0.100
126.900	-9.950	0.100
127.000	-4.675	0.100
127.100	-1.979	0.100
127.200	-1.534	0.100
127.300	-8.911	0.100
127.400	0.267	0.100
127.500	-12.500	0.100
127.600	-5.146	0.100
127.700	-9.054	0.100
127.800	-14.776	0.100
127.900	-7.175	0.100
128.000	0.669	0.100
128.100	13.664	0.100
128.200	-1.416	0.100
128.300	-9.506	0.100
128.400	-14.705	0.100
128.500	-7.657	0.100
128.600	-11.947	0.100
128.700	2.198	0.100
128.800	-0.440	0.100
128.900	2.984	0.100
129.000	3.838	0.100
129.100	-16.406	0.100
129.200	-12.555	0.100
129.300	-5.446	0.100
129.400	-7.037	0.100
129.500	-5.050	0.100
129.600	4.197	0.100
129.700	-16.725	0.100
129.800	-6.442	0.100
129.900	-11.001	0.100
130.000	-0.119	0.100
130.100	1.758	0.100
130.200	-1.868	0.100
130.300	-17.478	0.100
130.400	-4.819	0.100
130.500	-13.436	0.100
130.600	11.731	0.100
130.700	0.729	0.100
130.800	-4.456	0.100
130.900	-5.402	0.100
131.000	-5.063	0.100
131.100	-14.194	0.100
131.200	9.099	0.100
131.300	-15.995	0.100
131.400	-4.213	0.100
131.500	-5.034	0.100
131.600	-12.380	0.100
131.700	0.989	0.100
131.800	-3.434	0.100
131.900	-15.287	0.100
132.000	-12.523	0.100
132.100	-4.848	0.100
132.200	-0.267	0.100
132.300	1.679	0.100
132.400	9.910	0.100
132.500	6.855	0.100
132.600	-10.448	0.100
132.700	7.235	0.100
132.800	-3.174	0.100
132.900	-9.422	0.100
133.000	-0.897	0.100
133.100	-10.005	0.100
133.200	-11.646	0.100
133.300	-3.872	0.100
133.400	-14.776	0.100
133.500	-13.130	0.100
133.600	-9.205	0.100
133.700	-0.548	0.100
133.800	-19.993	0.100
133.900	11.344	0.100
134.000	-9.500	0.100
134.100	-0.361	0.100
134.200	-11.884	0.100
134.300	-19.316	0.100
134.400	10.669	0.100
134.500	-2.621	0.100
134.600	-3.434	0.100
134.700	-10.912	0.100
134.800	-5.300	0.100
134.900	-8.655	0.100
135.000	1.397	0.100
135.100	4.492	0.100
135.200	-9.261	0.100
135.300	-11.246	0.100
135.400	-33.522	0.100
135.500	-3.548	0.100
135.600	0.436	0.100
135.700	-5.286	0.100
135.800	-2.602	0.100
135.900	-11.176	0.100
136.000	-3.340	0.100
136.100	-12.399	0.100
136.200	-9.774	0.100
136.300	-14.834	0.100
136.400	-3.305	0.100
136.500	2.192	0.100
136.600	-6.923	0.100
136.700	-5.634	0.100
136.800	-2.009	0.100
136.900	-14.159	0.100
137.000	-7.040	0.100
137.100	1.372	0.100
137.200	-1.471	0.100
137.300	-11.890	0.100
137.400	-11.580	0.100
137.500	-13.718	0.100
137.600	-14.395	0.100
137.700	-3.526	0.100
137.800	-6.749	0.100
137.900	-7.697	0.100
138.000	-0.439	0.100
138.100	-0.677	0.100
138.200	-5.998	0.100
138.300	-7.428	0.100
138.400	-14.477	0.100
138.500	1.573	0.100
138.600	0.026	0.100
138.700	-22.183	0.100
138.800	-8.601	0.100
138.900	-5.863	0.100
139.000	-7.552	0.100
139.100	-15.219	0.100
139.200	9.395	0.100
139.300	-2.938	0.100
139.400	-6.212	0.100
139.500	-15.466	0.100
139.600	1.054	0.100
139.700	1.246	0.100
139.800	-14.952	0.100
139.900	-7.009	0.100
140.000	-4.501	0.100
140.100	-6.796	0.100
140.200	-6.013	0.100
140.300	-4.673	0.100
140.400	-1.769	0.100
140.500	-10.202	0.100
140.600	-15.827	0.100
140.700	-9.804	0.100
140.800	-4.191	0.100
140.900	-20.941	0.100
141.000	-6.900	0.100
141.100	-0.175	0.100
141.200	-4.877	0.100
141.300	-1.750	0.100
141.400	5.085	0.100
141.500	-2.749	0.100
141.600	-9.160	0.100
141.700	-4.204	0.100
141.800	-8.265	0.100
141.900	-7.681	0.100
142.000	-11.825	0.100
142.100	-5.498	0.100
142.200	-4.827	0.100
142.300	-8.345	0.100
142.400	-13.345	0.100
142.500	-10.857	0.100
142.600	-2.590	0.100
142.700	4.032	0.100
142.800	-14.717	0.100
142.900	0.497	0.100
143.000	-10.689	0.100
143.100	-8.968	0.100
143.200	-9.313	0.100
143.300	-14.134	0.100
143.400	-11.663	0.100
143.500	5.721	0.100
143.600	-12.057	0.100
143.700	-0.214	0.100
143.800	-4.399	0.100
143.900	-0.583	0.100
144.000	-16.804	0.100
144.100	-6.735	0.100
144.200	-5.568	0.100
144.300	-10.275	0.100
144.400	-11.849	0.100
144.500	-0.621	0.100
144.600	4.520	0.100
144.700	-13.153	0.100
144.800	-2.006	0.100
144.900	-19.055	0.100
145.000	-10.730	0.100
145.100	-8.783	0.100
145.200	-5.828	0.100
145.300	-5.218	0.100
145.400	-5.768	0.100
145.500	-8.320	0.100
145.600	-7.794	0.100
145.700	-12.261	0.100
145.800	-10.015	0.100
145.900	-8.003	0.100
146.000	-4.504	0.100
146.100	-6.492	0.100
146.200	0.503	0.100
146.300	-9.106	0.100
146.400	-19.714	0.100
146.500	-7.840	0.100
146.600	-28.012	0.100
146.700	2.105	0.100
146.800	4.494	0.100
146.900	-1.704	0.100
147.000	0.127	0.100
147.100	-11.358	0.100
147.200	-8.128	0.100
147.300	-15.044	0.100
147.400	-13.860	0.100
147.500	-13.183	0.100
147.600	-1.473	0.100
147.700	-5.803	0.100
147.800	-0.164	0.100
147.900	-9.830	0.100
148.000	-4.427	0.100
148.100	-10.743	0.100
148.200	-14.618	0.100
148.300	-9.604	0.100
148.400	-1.439	0.100
148.500	-6.594	0.100
148.600	-17.371	0.100
148.700	0.735	0.100
148.800	-10.959	0.100
148.900	-13.728	0.100
149.000	7.808	0.100
149.100	-2.526	0.100
149.200	-27.065	0.100
149.300	8.728	0.100
149.400	0.222	0.100
149.500	-17.714	0.100
149.600	-6.399	0.100
149.700	-11.447	0.100
149.800	7.254	0.100
149.900	-11.424	0.100
150.000	1.836	0.100
150.100	-3.636	0.100
150.200	-15.402	0.100
150.300	-9.809	0.100
150.400	-10.083	0.100
150.500	-35.465	0.100
150.600	-6.815	0.100
150.700	-7.174	0.100
150.800	-4.492	0.100
150.900	-7.602	0.100
151.000	-11.352	0.100
151.100	-1.945	0.100
151.200	-3.834	0.100
151.300	-3.581	0.100
151.400	-9.016	0.100
151.500	-2.179	0.100
151.600	-14.952	0.100
151.700	-5.932	0.100
151.800	-7.227	0.100
151.900	5.594	0.100
152.000	-7.422	0.100
152.100	-4.761	0.100
152.200	-11.759	0.100
152.300	-16.475	0.100
152.400	-10.779	0.100
152.500	-5.572	0.100
152.600	-1.480	0.100
152.700	0.101	0.100
152.800	1.719	0.100
152.900	-14.606	0.100
153.000	-16.407	0.100
153.100	-7.365	0.100
153.200	-22.419	0.100
153.300	4.535	0.100
153.400	-20.083	0.100
153.500	2.498	0.100
153.600	-12.744	0.100
153.700	-4.389	0.100
153.800	-17.571	0.100
153.900	-5.416	0.100
154.000	-2.015	0.100
154.100	-7.025	0.100
154.200	-4.624	0.100
154.300	-23.545	0.100
154.400	-13.402	0.100
154.500	-1.571	0.100
154.600	-13.755	0.100
154.700	-13.499	0.100
154.800	-1.175	0.100
154.900	2.740	0.100
155.000	-10.560	0.100
155.100	-7.356	0.100
155.200	-12.968	0.100
155.300	-9.830	0.100
155.400	13.234	0.100
155.500	5.974	0.100
155.600	-7.191	0.100
155.700	-7.520	0.100
155.800	1.795	0.100
155.900	-13.697	0.100
156.000	-9.329	0.100
156.100	-18.835	0.100
156.200	1.491	0.100
156.300	-6.517	0.100
156.400	-19.187	0.100
156.500	-18.801	0.100
156.600	5.299	0.100
156.700	-17.650	0.100
156.800	2.664	0.100
156.900	-7.818	0.100
157.000	-7.732	0.100
157.100	2.154	0.100
157.200	-6.582	0.100
157.300	-0.473	0.100
157.400	-17.895	0.100
157.500	-3.463	0.100
157.600	-8.448	0.100
157.700	-7.630	0.100
157.800	-4.630	0.100
157.900	6.794	0.100
158.000	-4.292	0.100
158.100	-18.225	0.100
158.200	1.952	0.100
158.300	-8.777	0.100
158.400	-0.126	0.100
158.500	-6.237	0.100
158.600	0.579	0.100
158.700	-4.459	0.100
158.800	-15.499	0.100
158.900	-9.425	0.100
159.000	-0.375	0.100
159.100	-8.338	0.100
159.200	3.878	0.100
159.300	-2.047	0.100
159.400	-2.872	0.100
159.500	-14.467	0.100
159.600	-6.508	0.100
159.700	1.931	0.100
159.800	-5.940	0.100
159.900	-12.947	0.100
160.000	-15.165	0.100
160.100	-2.679	0.100
160.200	-1.924	0.100
160.300	-4.483	0.100
160.400	-4.273	0.100
160.500	-11.286	0.100
160.600	-15.735	0.100
160.700	-8.898	0.100
160.800	-4.578	0.100
160.900	1.209	0.100
161.000	2.960	0.100
161.100	-6.175	0.100
161.200	-8.268	0.100
161.300	-4.655	0.100
161.400	-3.048	0.100
161.500	-12.855	0.100
161.600	-2.605	0.100
161.700	4.813	0.100
161.800	-5.891	0.100
161.900	-19.761	0.100
162.000	-9.547	0.100
162.100	-1.779	0.100
162.200	-5.612	0.100
162.300	-9.902	0.100
162.400	-16.235	0.100
162.500	3.202	0.100
162.600	-5.864	0.100
162.700	3.595	0.100
162.800	-9.441	0.100
162.900	-23.571	0.100
163.000	-11.594	0.100
163.100	-3.351	0.100
163.200	-1.430	0.100
163.300	-7.426	0.100
163.400	-3.191	0.100
163.500	1.497	0.100
163.600	-1.667	0.100
163.700	-5.825	0.100
163.800	-8.870	0.100
163.900	-0.371	0.100
164.000	-8.411	0.100
164.100	0.516	0.100
164.200	-9.697	0.100
164.300	-8.502	0.100
164.400	2.038	0.100
164.500	-6.409	0.100
164.600	-9.929	0.100
164.700	-1.964	0.100
164.800	-7.790	0.100
164.900	2.315	0.100
165.000	-0.543	0.100
165.100	-5.986	0.100
165.200	-18.231	0.100
165.300	-9.054	0.100
165.400	-4.386	0.100
165.500	-1.848	0.100
165.600	-2.145	0.100
165.700	-9.245	0.100
165.800	-6.817	0.100
165.900	-1.562	0.100
166.000	-12.929	0.100
166.100	0.603	0.100
166.200	-9.408	0.100
166.300	-12.963	0.100
166.400	2.835	0.100
166.500	-7.573	0.100
166.600	-13.231	0.100
166.700	-12.311	0.100
166.800	-7.433	0.100
166.900	-10.212	0.100
167.000	2.136	0.100
167.100	-6.368	0.100
167.200	-6.184	0.100
167.300	2.406	0.100
167.400	-14.490	0.100
167.500	-0.569	0.100
167.600	-3.403	0.100
167.700	-4.445	0.100
167.800	1.387	0.100
167.900	-12.003	0.100
168.000	-3.161	0.100
168.100	-3.465	0.100
168.200	-0.080	0.100
168.300	1.022	0.100
168.400	-6.271	0.100
168.500	1.806	0.100
168.600	-16.060	0.100
168.700	-1.362	0.100
168.800	-13.169	0.100
168.900	-4.102	0.100
169.000	-6.022	0.100
169.100	-11.475	0.100
169.200	-7.373	0.100
169.300	-7.201	0.100
169.400	-4.649	0.100
169.500	-6.595	0.100
169.600	-8.318	0.100
169.700	-8.248	0.100
169.800	-7.438	0.100
169.900	-10.507	0.100
170.000	-3.791	0.100
170.100	-7.805	0.100
170.200	-19.291	0.100
170.300	-6.816	0.100
170.400	-11.466	0.100
170.500	-0.365	0.100
170.600	2.546	0.100
170.700	-13.128	0.100
170.800	-9.686	0.100
170.900	-22.897	0.100
171.000	-3.000	0.100
171.100	3.891	0.100
171.200	-23.006	0.100
171.300	3.030	0.100
171.400	-1.847	0.100
171.500	-6.499	0.100
171.600	-6.522	0.100
171.700	-16.931	0.100
171.800	-12.221	0.100
171.900	-1.977	0.100
172.000	-17.933	0.100
172.100	-3.385	0.100
172.200	-19.030	0.100
172.300	-9.397	0.100
172.400	10.399	0.100
172.500	-5.080	0.100
172.600	-14.042	0.100
172.700	-1.142	0.100
172.800	-3.370	0.100
172.900	-6.743	0.100
173.000	-17.106	0.100
173.100	-0.571	0.100
173.200	-2.735	0.100
173.300	-9.786	0.100
173.400	0.592	0.100
173.500	-7.730	0.100
173.600	-2.281	0.100
173.700	-6.549	0.100
173.800	-3.770	0.100
173.900	5.645	0.100
174.000	-9.880	0.100
174.100	-9.345	0.100
174.200	2.340	0.100
174.300	-20.438	0.100
174.400	1.827	0.100
174.500	-4.930	0.100
174.600	-14.859	0.100
174.700	6.151	0.100
174.800	-15.239	0.100
174.900	-6.847	0.100
175.000	9.607	0.100
175.100	-15.262	0.100
175.200	-13.275	0.100
175.300	-0.197	0.100
175.400	-2.610	0.100
175.500	-8.163	0.100
175.600	1.969	0.100
175.700	-7.132	0.100
175.800	0.976	0.100
175.900	-10.491	0.100
176.000	-12.683	0.100
176.100	-9.570	0.100
176.200	5.810	0.100
176.300	-14.457	0.100
176.400	2.082	0.100
176.500	-6.119	0.100
176.600	-20.548	0.100
176.700	16.011	0.100
176.800	-8.320	0.100
176.900	-2.229	0.100
177.000	-9.565	0.100
177.100	2.902	0.100
177.200	-4.697	0.100
177.300	2.090	0.100
177.400	-4.774	0.100
177.500	-8.315	0.100
177.600	-1.207	0.100
177.700	-17.934	0.100
177.800	3.485	0.100
177.900	-5.668	0.100
178.000	-26.855	0.100
178.100	-5.479	0.100
178.200	1.029	0.100
178.300	-6.595	0.100
178.400	-11.697	0.100
178.500	-13.258	0.100
178.600	-1.679	0.100
178.700	-15.278	0.100
178.800	-14.577	0.100
178.900	0.282	0.100
179.000	-1.994	0.100
179.100	-7.808	0.100
179.200	-0.967	0.100
179.300	-12.004	0.100
179.400	-3.890	0.100
179.500	-5.867	0.100
179.600	-5.074	0.100
179.700	4.325	0.100
179.800	-4.789	0.100
179.900	-17.259	0.100
180.000	-6.371	0.100
180.100	5.149	0.100
180.200	-1.605	0.100
180.300	-15.101	0.100
180.400	-2.580	0.100
180.500	-7.043	0.100
180.600	-0.422	0.100
180.700	-9.670	0.100
180.800	2.719	0.100
180.900	4.564	0.100
181.000	-6.123	0.100
181.100	4.359	0.100
181.200	2.823	0.100
181.300	-4.684	0.100
181.400	-2.306	0.100
181.500	-11.815	0.100
181.600	-2.738	0.100
181.700	0.014	0.100
181.800	-6.603	0.100
181.900	6.013	0.100
182.000	-4.729	0.100
182.100	1.321	0.100
182.200	-5.689	0.100
182.300	-2.473	0.100
182.400	3.961	0.100
182.500	1.096	0.100
182.600	5.240	0.100
182.700	1.740	0.100
182.800	3.796	0.100
182.900	-0.766	0.100
183.000	2.793	0.100
183.100	-8.626	0.100
183.200	4.468	0.100
183.300	2.424	0.100
183.400	2.405	0.100
183.500	0.564	0.100
183.600	4.252	0.100
183.700	-0.504	0.100
183.800	5.557	0.100
183.900	3.790	0.100
184.000	-4.530	0.100
184.100	7.879	0.100
184.200	-10.411	0.100
184.300	4.686	0.100
184.400	-1.810	0.100
184.500	-3.944	0.100
184.600	-0.788	0.100
184.700	-14.296	0.100
184.800	-1.711	0.100
184.900	-3.320	0.100
185.000	3.777	0.100
185.100	15.366	0.100
185.200	2.999	0.100
185.300	0.316	0.100
185.400	-0.182	0.100
185.500	-12.071	0.100
185.600	-4.030	0.100
185.700	7.712	0.100
185.800	4.260	0.100
185.900	5.385	0.100
186.000	0.208	0.100
186.100	-0.794	0.100
186.200	-13.951	0.100
186.300	-1.287	0.100
186.400	-0.144	0.100
186.500	4.895	0.100
186.600	13.864	0.100
186.700	-4.345	0.100
186.800	15.425	0.100
186.900	13.376	0.100
187.000	-8.649	0.100
187.100	-15.826	0.100
187.200	-12.907	0.100
187.300	6.960	0.100
187.400	1.784	0.100
187.500	0.338	0.100
187.600	4.454	0.100
187.700	1.869	0.100
187.800	2.016	0.100
187.900	-6.572	0.100
188.000	-12.986	0.100
188.100	10.730	0.100
188.200	3.218	0.100
188.300	0.628	0.100
188.400	-7.341	0.100
188.500	6.490	0.100
188.600	1.127	0.100
188.700	-2.441	0.100
188.800	1.257	0.100
188.900	3.238	0.100
189.000	-8.736	0.100
189.100	12.074	0.100
189.200	1.148	0.100
189.300	-0.364	0.100
189.400	-4.693	0.100
189.500	7.083	0.100
189.600	9.340	0.100
189.700	3.155	0.100
189.800	-10.743	0.100
189.900	-11.996	0.100
190.000	4.086	0.100
190.100	-3.668	0.100
190.200	8.604	0.100
190.300	0.911	0.100
190.400	-0.470	0.100
190.500	21.287	0.100
190.600	1.914	0.100
190.700	-0.301	0.100
190.800	-2.630	0.100
190.900	-4.103	0.100
191.000	7.140	0.100
191.100	2.641	0.100
191.200	-20.669	0.100
191.300	7.769	0.100
191.400	11.110	0.100
191.500	8.322	0.100
191.600	2.335	0.100
191.700	-0.779	0.100
191.800	-8.220	0.100
191.900	2.531	0.100
192.000	0.219	0.100
192.100	9.647	0.100
192.200	5.370	0.100
192.300	12.763	0.100
192.400	-5.491	0.100
192.500	-14.150	0.100
192.600	0.444	0.100
192.700	15.789	0.100
192.800	-0.468	0.100
192.900	10.954	0.100
193.000	-6.161	0.100
193.100	5.062	0.100
193.200	2.406	0.100
193.300	-2.856	0.100
193.400	-3.569	0.100
193.500	6.488	0.100
193.600	-8.544	0.100
193.700	0.467	0.100
193.800	5.390	0.100
193.900	5.546	0.100
194.000	11.255	0.100
194.100	-0.360	0.100
194.200	3.444	0.100
194.300	-2.779	0.100
194.400	6.321	0.100
194.500	4.379	0.100
194.600	5.029	0.100
194.700	8.019	0.100
194.800	12.436	0.100
194.900	-3.711	0.100
195.000	10.570	0.100
195.100	3.256	0.100
195.200	10.541	0.100
195.300	-6.002	0.100
195.400	10.407	0.100
195.500	3.547	0.100
195.600	-11.945	0.100
195.700	-2.905	0.100
195.800	1.580	0.100
195.900	10.686	0.100
196.000	15.324	0.100
196.100	10.460	0.100
196.200	-7.614	0.100
196.300	11.580	0.100
196.400	-6.167	0.100
196.500	6.471	0.100
196.600	7.081	0.100
196.700	14.717	0.100
196.800	4.417	0.100
196.900	-8.048	0.100
197.000	10.942	0.100
197.100	10.186	0.100
197.200	7.336	0.100
197.300	1.850	0.100
197.400	12.618	0.100
197.500	-5.413	0.100
197.600	7.371	0.100
197.700	2.302	0.100
197.800	5.534	0.100
197.900	-5.595	0.100
198.000	6.654	0.100
198.100	8.099	0.100
198.200	6.892	0.100
198.300	-5.639	0.100
198.400	11.321	0.100
198.500	11.489	0.100
198.600	17.382	0.100
198.700	15.814	0.100
198.800	3.241	0.100
198.900	-4.332	0.100
199.000	10.190	0.100
199.100	5.091	0.100
199.200	3.342	0.100
199.300	-0.700	0.100
199.400	11.818	0.100
199.500	5.216	0.100
199.600	7.370	0.100
199.700	3.377	0.100
199.800	10.032	0.100
199.900	14.594	0.100
200.000	2.890	0.100
200.100	-2.461	0.100
200.200	6.469	0.100
200.300	23.093	0.100
200.400	22.345	0.100
200.500	8.402	0.100
200.600	7.224	0.100
200.700	-7.971	0.100
200.800	-3.442	0.100
200.900	26.793	0.100
201.000	11.819	0.100
201.100	5.562	0.100
201.200	3.722	0.100
201.300	-1.299	0.100
201.400	-0.084	0.100
201.500	10.836	0.100
201.600	16.561	0.100
201.700	4.702	0.100
201.800	3.861	0.100
201.900	5.985	0.100
202.000	11.110	0.100
202.100	-1.085	0.100
202.200	11.306	0.100
202.300	11.199	0.100
202.400	15.084	0.100
202.500	4.571	0.100
202.600	-0.421	0.100
202.700	-2.557	0.100
202.800	-7.480	0.100
202.900	19.467	0.100
203.000	6.892	0.100
203.100	13.542	0.100
203.200	6.330	0.100
203.300	15.088	0.100
203.400	13.153	0.100
203.500	3.863	0.100
203.600	14.495	0.100
203.700	-3.286	0.100
203.800	-4.089	0.100
203.900	8.078	0.100
204.000	10.733	0.100
204.100	7.469	0.100
204.200	10.491	0.100
204.300	5.786	0.100
204.400	7.716	0.100
204.500	8.952	0.100
204.600	4.499	0.100
204.700	18.935	0.100
204.800	13.999	0.100
204.900	-0.775	0.100
205.000	2.239	0.100
205.100	11.936	0.100
205.200	16.529	0.100
205.300	-5.159	0.100
205.400	16.508	0.100
205.500	-6.021	0.100
205.600	13.944	0.100
205.700	12.373	0.100
205.800	3.588	0.100
205.900	15.235	0.100
206.000	4.076	0.100
206.100	12.239	0.100
206.200	11.347	0.100
206.300	18.467	0.100
206.400	9.819	0.100
206.500	11.234	0.100
206.600	4.411	0.100
206.700	12.511	0.100
206.800	4.164	0.100
206.900	4.505	0.100
207.000	10.234	0.100
207.100	10.006	0.100
207.200	23.346	0.100
207.300	10.131	0.100
207.400	13.482	0.100
207.500	18.459	0.100
207.600	-0.174	0.100
207.700	7.403	0.100
207.800	0.796	0.100
207.900	4.364	0.100
208.000	11.516	0.100
208.100	6.257	0.100
208.200	16.265	0.100
208.300	0.436	0.100
208.400	14.562	0.100
208.500	18.534	0.100
208.600	18.365	0.100
208.700	2.387	0.100
208.800	3.842	0.100
208.900	-1.510	0.100
209.000	-0.136	0.100
209.100	6.765	0.100
209.200	20.517	0.100
209.300	12.727	0.100
209.400	11.817	0.100
209.500	26.058	0.100
209.600	17.021	0.100
209.700	4.042	0.100
209.800	15.077	0.100
209.900	-10.648	0.100
210.000	11.833	0.100
210.100	6.975	0.100
210.200	-5.076	0.100
210.300	2.525	0.100
210.400	10.908	0.100
210.500	18.172	0.100
210.600	10.303	0.100
210.700	1.646	0.100
210.800	16.860	0.100
210.900	20.836	0.100
211.000	8.737	0.100
211.100	20.804	0.100
211.200	12.540	0.100
211.300	6.773	0.100
211.400	2.871	0.100
211.500	17.204	0.100
211.600	0.731	0.100
211.700	12.380	0.100
211.800	17.467	0.100
211.900	11.784	0.100
212.000	1.371	0.100
212.100	-0.980	0.100
212.200	19.005	0.100
212.300	15.059	0.100
212.400	13.375	0.100
212.500	21.530	0.100
212.600	7.619	0.100
212.700	11.839	0.100
212.800	23.577	0.100
212.900	0.388	0.100
213.000	13.045	0.100
213.100	13.644	0.100
213.200	10.154	0.100
213.300	12.675	0.100
213.400	5.775	0.100
213.500	2.962	0.100
213.600	13.623	0.100
213.700	8.611	0.100
213.800	8.086	0.100
213.900	20.841	0.100
214.000	9.260	0.100
214.100	20.681	0.100
214.200	1.358	0.100
214.300	12.070	0.100
214.400	10.972	0.100
214.500	8.768	0.100
214.600	7.648	0.100
214.700	14.577	0.100
214.800	5.541	0.100
214.900	27.701	0.100
215.000	14.458	0.100
215.100	9.125	0.100
215.200	16.179	0.100
215.300	2.764	0.100
215.400	15.809	0.100
215.500	14.360	0.100
215.600	13.155	0.100
215.700	9.328	0.100
215.800	0.490	0.100
215.900	16.847	0.100
216.000	-0.315	0.100
216.100	5.620	0.100
216.200	4.303	0.100
216.300	25.290	0.100
216.400	4.740	0.100
216.500	11.098	0.100
216.600	4.012	0.100
216.700	12.902	0.100
216.800	7.226	0.100
216.900	-4.407	0.100
217.000	33.584	0.100
217.100	19.529	0.100
217.200	10.363	0.100
217.300	13.748	0.100
217.400	2.701	0.100
217.500	2.036	0.100
217.600	9.750	0.100
217.700	8.470	0.100
217.800	15.071	0.100
217.900	19.415	0.100
218.000	13.866	0.100
218.100	12.942	0.100
218.200	14.191	0.100
218.300	0.939	0.100
218.400	6.690	0.100
218.500	9.696	0.100
218.600	8.025	0.100
218.700	17.208	0.100
218.800	24.872	0.100
218.900	7.108	0.100
219.000	12.270	0.100
219.100	17.409	0.100
219.200	-7.597	0.100
219.300	5.574	0.100
219.400	18.240	0.100
219.500	16.789	0.100
219.600	14.786	0.100
219.700	0.910	0.100
219.800	1.261	0.100
219.900	16.224	0.100
220.000	18.589	0.100
220.100	19.064	0.100
220.200	-1.331	0.100
220.300	21.558	0.100
220.400	21.979	0.100
220.500	10.559	0.100
220.600	5.636	0.100
220.700	19.150	0.100
220.800	18.924	0.100
220.900	13.166	0.100
221.000	9.471	0.100
221.100	18.285	0.100
221.200	24.388	0.100
221.300	12.916	0.100
221.400	2.948	0.100
221.500	13.396	0.100
221.600	15.609	0.100
221.700	12.804	0.100
221.800	7.735	0.100
221.900	24.002	0.100
222.000	14.158	0.100
222.100	3.999	0.100
222.200	17.296	0.100
222.300	8.790	0.100
222.400	10.938	0.100
222.500	10.693	0.100
222.600	7.684	0.100
222.700	4.092	0.100
222.800	9.307	0.100
222.900	13.076	0.100
223.000	24.499	0.100
223.100	9.780	0.100
223.200	7.027	0.100
223.300	0.798	0.100
223.400	15.803	0.100
223.500	23.287	0.100
223.600	6.600	0.100
223.700	19.880	0.100
223.800	8.571	0.100
223.900	15.596	0.100
224.000	9.744	0.100
224.100	13.252	0.100
224.200	16.241	0.100
224.300	17.041	0.100
224.400	1.366	0.100
224.500	3.846	0.100
224.600	15.069	0.100
224.700	7.534	0.100
224.800	19.513	0.100
224.900	-0.229	0.100
225.000	17.479	0.100
225.100	7.340	0.100
225.200	8.678	0.100
225.300	3.732	0.100
225.400	22.128	0.100
225.500	12.871	0.100
225.600	19.140	0.100
225.700	8.912	0.100
225.800	4.348	0.100
225.900	10.833	0.100
226.000	22.569	0.100
226.100	16.698	0.100
226.200	9.571	0.100
226.300	13.183	0.100
226.400	11.200	0.100
226.500	13.591	0.100
226.600	-3.359	0.100
226.700	19.552	0.100
226.800	6.815	0.100
226.900	12.005	0.100
227.000	11.302	0.100
227.100	23.742	0.100
227.200	13.704	0.100
227.300	21.867	0.100
227.400	6.175	0.100
227.500	6.288	0.100
227.600	24.283	0.100
227.700	0.848	0.100
227.800	18.855	0.100
227.900	13.742	0.100
228.000	10.023	0.100
228.100	3.943	0.100
228.200	15.847	0.100
228.300	21.535	0.100
228.400	1.355	0.100
228.500	17.865	0.100
228.600	17.918	0.100
228.700	17.107	0.100
228.800	24.445	0.100
228.900	18.248	0.100
229.000	15.496	0.100
229.100	10.370	0.100
229.200	9.227	0.100
229.300	3.821	0.100
229.400	8.217	0.100
229.500	15.334	0.100
229.600	2.953	0.100
229.700	15.406	0.100
229.800	16.754	0.100
229.900	19.809	0.100
230.000	17.297	0.100
230.100	10.322	0.100
230.200	12.789	0.100
230.300	11.143	0.100
230.400	16.927	0.100
230.500	6.055	0.100
230.600	11.443	0.100
230.700	14.643	0.100
230.800	8.993	0.100
230.900	15.389	0.100
231.000	12.096	0.100
231.100	10.103	0.100
231.200	28.915	0.100
231.300	21.224	0.100
231.400	6.489	0.100
231.500	28.094	0.100
231.600	7.154	0.100
231.700	6.606	0.100
231.800	15.511	0.100
231.900	18.661	0.100
232.000	9.174	0.100
232.100	26.645	0.100
232.200	4.998	0.100
232.300	10.958	0.100
232.400	13.092	0.100
232.500	-0.249	0.100
232.600	12.415	0.100
232.700	9.183	0.100
232.800	9.428	0.100
232.900	16.907	0.100
233.000	24.911	0.100
233.100	7.494	0.100
233.200	8.430	0.100
233.300	6.966	0.100
233.400	15.853	0.100
233.500	20.898	0.100
233.600	4.002	0.100
233.700	12.864	0.100
233.800	14.565	0.100
233.900	24.953	0.100
234.000	13.783	0.100
234.100	24.744	0.100
234.200	9.986	0.100
234.300	17.944	0.100
234.400	5.014	0.100
234.500	14.093	0.100
234.600	12.227	0.100
234.700	13.928	0.100
234.800	13.032	0.100
234.900	25.985	0.100
235.000	22.539	0.100
235.100	6.683	0.100
235.200	18.212	0.100
235.300	10.747	0.100
235.400	-0.456	0.100
235.500	16.639	0.100
235.600	18.038	0.100
235.700	8.719	0.100
235.800	15.996	0.100
235.900	15.643	0.100
236.000	13.655	0.100
236.100	6.252	0.100
236.200	11.204	0.100
236.300	16.371	0.100
236.400	5.025	0.100
236.500	16.327	0.100
236.600	7.741	0.100
236.700	11.704	0.100
236.800	20.421	0.100
236.900	24.280	0.100
237.000	10.404	0.100
237.100	0.367	0.100
237.200	13.072	0.100
237.300	17.770	0.100
237.400	12.267	0.100
237.500	11.985	0.100
237.600	13.343	0.100
237.700	6.772	0.100
237.800	16.078	0.100
237.900	17.497	0.100
238.000	22.564	0.100
238.100	9.513	0.100
238.200	0.340	0.100
238.300	25.950	0.100
238.400	19.817	0.100
238.500	-4.035	0.100
238.600	15.222	0.100
238.700	8.339	0.100
238.800	12.264	0.100
238.900	15.853	0.100
239.000	1.993	0.100
239.100	15.940	0.100
239.200	10.025	0.100
239.300	7.309	0.100
239.400	12.041	0.100
239.500	20.015	0.100
239.600	15.241	0.100
239.700	15.246	0.100
239.800	18.972	0.100
239.900	14.545	0.100
240.000	11.144	0.100
240.100	1.297	0.100
240.200	19.723	0.100
240.300	21.984	0.100
240.400	18.299	0.100
240.500	10.548	0.100
240.600	11.473	0.100
240.700	8.045	0.100
240.800	14.718	0.100
240.900	12.926	0.100
241.000	21.825	0.100
241.100	1.499	0.100
241.200	12.699	0.100
241.300	8.857	0.100
241.400	14.281	0.100
241.500	1.580	0.100
241.600	10.714	0.100
241.700	17.695	0.100
241.800	18.746	0.100
241.900	13.780	0.100
242.000	5.904	0.100
242.100	25.240	0.100
242.200	4.388	0.100
242.300	2.897	0.100
242.400	19.191	0.100
242.500	6.087	0.100
242.600	19.581	0.100
242.700	11.007	0.100
242.800	7.899	0.100
242.900	14.780	0.100
243.000	9.758	0.100
243.100	9.093	0.100
243.200	5.386	0.100
243.300	14.511	0.100
243.400	13.097	0.100
243.500	6.683	0.100
243.600	14.597	0.100
243.700	11.221	0.100
243.800	13.922	0.100
243.900	13.232	0.100
244.000	5.317	0.100
244.100	11.980	0.100
244.200	4.995	0.100
244.300	0.596	0.100
244.400	13.080	0.100
244.500	16.853	0.100
244.600	12.589	0.100
244.700	5.909	0.100
244.800	5.977	0.100
244.900	16.545	0.100
245.000	2.137	0.100
245.100	15.448	0.100
245.200	9.946	0.100
245.300	9.023	0.100
245.400	12.678	0.100
245.500	12.385	0.100
245.600	11.155	0.100
245.700	0.357	0.100
245.800	25.207	0.100
245.900	6.368	0.100
246.000	5.403	0.100
246.100	-6.343	0.100
246.200	-3.826	0.100
246.300	10.197	0.100
246.400	5.882	0.100
246.500	0.527	0.100
246.600	3.705	0.100
246.700	6.883	0.100
246.800	4.096	0.100
246.900	8.463	0.100
247.000	21.754	0.100
247.100	12.811	0.100
247.200	8.811	0.100
247.300	17.842	0.100
247.400	9.325	0.100
247.500	12.388	0.100
247.600	14.779	0.100
247.700	0.213	0.100
247.800	14.583	0.100
247.900	13.324	0.100
248.000	5.635	0.100
248.100	3.425	0.100
248.200	3.227	0.100
248.300	10.566	0.100
248.400	12.420	0.100
248.500	6.226	0.100
248.600	-0.449	0.100
248.700	3.319	0.100
248.800	13.058	0.100
248.900	7.761	0.100
249.000	6.782	0.100
249.100	5.247	0.100
249.200	3.485	0.100
249.300	1.732	0.100
249.400	9.933	0.100
249.500	10.747	0.100
249.600	18.536	0.100
249.700	-2.467	0.100
249.800	-1.354	0.100
249.900	15.756	0.100
250.000	7.338	0.100
250.100	-2.123	0.100
250.200	8.320	0.100
250.300	22.328	0.100
250.400	24.020	0.100
250.500	-6.416	0.100
250.600	3.495	0.100
250.700	6.033	0.100
250.800	2.223	0.100
250.900	13.262	0.100
251.000	-9.362	0.100
251.100	13.320	0.100
251.200	-4.053	0.100
251.300	-4.313	0.100
251.400	14.473	0.100
251.500	9.817	0.100
251.600	9.989	0.100
251.700	1.918	0.100
251.800	-10.787	0.100
251.900	15.688	0.100
252.000	3.402	0.100
252.100	17.136	0.100
252.200	12.337	0.100
252.300	12.185	0.100
252.400	-9.107	0.100
252.500	-10.140	0.100
252.600	6.991	0.100
252.700	0.849	0.100
252.800	15.849	0.100
252.900	9.780	0.100
253.000	4.110	0.100
253.100	7.723	0.100
253.200	18.893	0.100
253.300	7.933	0.100
253.400	2.413	0.100
253.500	18.288	0.100
253.600	10.856	0.100
253.700	7.063	0.100
253.800	-4.033	0.100
253.900	4.523	0.100
254.000	-7.900	0.100
254.100	13.530	0.100
254.200	11.077	0.100
254.300	9.229	0.100
254.400	-0.177	0.100
254.500	0.632	0.100
254.600	12.613	0.100
254.700	0.302	0.100
254.800	-13.159	0.100
254.900	20.811	0.100
255.000	3.032	0.100
255.100	10.298	0.100
255.200	-0.150	0.100
255.300	12.638	0.100
255.400	22.665	0.100
255.500	6.961	0.100
255.600	13.234	0.100
255.700	1.127	0.100
255.800	-2.209	0.100
255.900	3.100	0.100
256.000	-1.839	0.100
256.100	-1.553	0.100
256.200	-7.751	0.100
256.300	14.205	0.100
256.400	17.569	0.100
256.500	2.611	0.100
256.600	1.251	0.100
256.700	-4.163	0.100
256.800	4.953	0.100
256.900	9.917	0.100
257.000	1.870	0.100
257.100	-2.325	0.100
257.200	4.539	0.100
257.300	12.520	0.100
257.400	-0.811	0.100
257.500	9.605	0.100
257.600	-1.086	0.100
257.700	1.622	0.100
257.800	4.847	0.100
257.900	13.218	0.100
258.000	-4.546	0.100
258.100	-3.152	0.100
258.200	-3.658	0.100
258.300	2.342	0.100
258.400	-0.982	0.100
258.500	5.640	0.100
258.600	8.732	0.100
258.700	12.182	0.100
258.800	4.710	0.100
258.900	6.534	0.100
259.000	-6.088	0.100
259.100	-0.672	0.100
259.200	9.031	0.100
259.300	-0.461	0.100
259.400	2.152	0.100
259.500	11.693	0.100
259.600	4.476	0.100
259.700	2.956	0.100
259.800	7.141	0.100
259.900	-3.250	0.100
260.000	-0.553	0.100
260.100	2.005	0.100
260.200	5.229	0.100
260.300	7.223	0.100
260.400	0.060	0.100
260.500	24.658	0.100
260.600	18.833	0.100
260.700	10.720	0.100
260.800	-3.919	0.100
260.900	1.501	0.100
261.000	9.912	0.100
261.100	-4.949	0.100
261.200	0.793	0.100
261.300	-2.082	0.100
261.400	-1.688	0.100
261.500	-12.831	0.100
261.600	12.603	0.100
261.700	13.496	0.100
261.800	-2.820	0.100
261.900	2.550	0.100
262.000	6.826	0.100
262.100	11.580	0.100
262.200	-4.138	0.100
262.300	-2.113	0.100
262.400	-11.322	0.100
262.500	-1.055	0.100
262.600	15.606	0.100
262.700	-0.525	0.100
262.800	3.747	0.100
262.900	-5.745	0.100
263.000	-9.281	0.100
263.100	-8.518	0.100
263.200	2.305	0.100
263.300	-2.314	0.100
263.400	12.081	0.100
263.500	1.122	0.100
263.600	-1.405	0.100
263.700	-13.134	0.100
263.800	2.204	0.100
263.900	0.033	0.100
264.000	3.285	0.100
264.100	9.221	0.100
264.200	8.808	0.100
264.300	-5.818	0.100
264.400	0.620	0.100
264.500	2.088	0.100
264.600	-6.142	0.100
264.700	3.434	0.100
264.800	2.646	0.100
264.900	0.936	0.100
265.000	9.094	0.100
265.100	-0.113	0.100
265.200	4.246	0.100
265.300	3.743	0.100
265.400	-22.168	0.100
265.500	-13.689	0.100
265.600	-7.972	0.100
265.700	-0.353	0.100
265.800	9.137	0.100
265.900	1.551	0.100
266.000	3.714	0.100
266.100	2.435	0.100
266.200	-4.376	0.100
266.300	0.098	0.100
266.400	-12.632	0.100
266.500	3.750	0.100
266.600	-2.691	0.100
266.700	-7.986	0.100
266.800	3.271	0.100
266.900	0.045	0.100
267.000	2.751	0.100
267.100	-0.863	0.100
267.200	-3.258	0.100
267.300	6.933	0.100
267.400	10.760	0.100
267.500	-6.817	0.100
267.600	4.880	0.100
267.700	-6.324	0.100
267.800	-5.124	0.100
267.900	-2.536	0.100
268.000	0.071	0.100
268.100	-1.697	0.100
268.200	-0.843	0.100
268.300	0.166	0.100
268.400	4.115	0.100
268.500	-0.291	0.100
268.600	-4.726	0.100
268.700	2.465	0.100
268.800	-8.074	0.100
268.900	8.000	0.100
269.000	-1.369	0.100
269.100	5.314	0.100
269.200	-1.180	0.100
269.300	-4.223	0.100
269.400	-0.220	0.100
269.500	-17.889	0.100
269.600	-4.648	0.100
269.700	-2.825	0.100
269.800	-5.335	0.100
269.900	4.183	0.100
270.000	4.115	0.100
270.100	2.716	0.100
270.200	-12.499	0.100
270.300	2.978	0.100
270.400	0.609	0.100
270.500	-2.524	0.100
270.600	-3.415	0.100
270.700	-4.261	0.100
270.800	-7.688	0.100
270.900	-8.230	0.100
271.000	-5.937	0.100
271.100	-1.459	0.100
271.200	7.981	0.100
271.300	10.454	0.100
271.400	-20.208	0.100
271.500	-7.125	0.100
271.600	9.120	0.100
271.700	-7.056	0.100
271.800	-18.062	0.100
271.900	2.505	0.100
272.000	-2.986	0.100
272.100	6.862	0.100
272.200	-9.692	0.100
272.300	5.511	0.100
272.400	-1.729	0.100
272.500	0.647	0.100
272.600	-8.225	0.100
272.700	-11.831	0.100
272.800	-0.779	0.100
272.900	12.312	0.100
273.000	0.027	0.100
273.100	-9.748	0.100
273.200	-6.008	0.100
273.300	-15.053	0.100
273.400	17.614	0.100
273.500	-14.087	0.100
273.600	6.276	0.100
273.700	-7.526	0.100
273.800	1.406	0.100
273.900	-2.384	0.100
274.000	-0.572	0.100
274.100	-5.938	0.100
274.200	-16.180	0.100
274.300	8.497	0.100
274.400	-24.117	0.100
274.500	-16.711	0.100
274.600	-1.000	0.100
274.700	-1.472	0.100
274.800	-5.300	0.100
274.900	-1.467	0.100
275.000	-5.636	0.100
275.100	0.261	0.100
275.200	-6.584	0.100
275.300	-6.554	0.100
275.400	-11.440	0.100
275.500	-1.263	0.100
275.600	-8.820	0.100
275.700	3.441	0.100
275.800	5.024	0.100
275.900	-0.678	0.100
276.000	-16.788	0.100
276.100	-1.763	0.100
276.200	2.980	0.100
276.300	-6.692	0.100
276.400	-0.208	0.100
276.500	-19.029	0.100
276.600	9.314	0.100
276.700	-5.125	0.100
276.800	0.106	0.100
276.900	7.330	0.100
277.000	-4.875	0.100
277.100	4.002	0.100
277.200	7.524	0.100
277.300	1.604	0.100
277.400	-8.666	0.100
277.500	-1.560	0.100
277.600	-5.769	0.100
277.700	-4.179	0.100
277.800	-3.280	0.100
277.900	-2.846	0.100
278.000	-6.803	0.100
278.100	4.670	0.100
278.200	-21.130	0.100
278.300	-20.506	0.100
278.400	-2.285	0.100
278.500	-5.088	0.100
278.600	-11.804	0.100
278.700	-4.858	0.100
278.800	-14.919	0.100
278.900	1.937	0.100
279.000	6.958	0.100
279.100	-4.864	0.100
279.200	-11.748	0.100
279.300	-9.136	0.100
279.400	-3.575	0.100
279.500	13.035	0.100
279.600	-5.597	0.100
279.700	6.512	0.100
279.800	1.514	0.100
279.900	-12.160	0.100
280.000	-15.272	0.100
280.100	3.827	0.100
280.200	5.485	0.100
280.300	-7.655	0.100
280.400	-8.832	0.100
280.500	-4.280	0.100
280.600	-6.407	0.100
280.700	-2.742	0.100
280.800	5.119	0.100
280.900	0.271	0.100
281.000	-9.548	0.100
281.100	-3.945	0.100
281.200	-2.892	0.100
281.300	-1.721	0.100
281.400	0.373	0.100
281.500	-6.068	0.100
281.600	-1.965	0.100
281.700	-3.653	0.100
281.800	8.124	0.100
281.900	4.754	0.100
282.000	-3.960	0.100
282.100	-7.399	0.100
282.200	-9.120	0.100
282.300	7.866	0.100
282.400	-4.494	0.100
282.500	-0.825	0.100
282.600	-0.372	0.100
282.700	-12.489	0.100
282.800	-23.323	0.100
282.900	8.609	0.100
283.000	-15.318	0.100
283.100	-22.588	0.100
283.200	-5.548	0.100
283.300	0.498	0.100
283.400	-1.218	0.100
283.500	-8.701	0.100
283.600	-8.453	0.100
283.700	-1.412	0.100
283.800	-3.118	0.100
283.900	-12.600	0.100
284.000	-0.068	0.100
284.100	-4.035	0.100
284.200	-10.726	0.100
284.300	-8.521	0.100
284.400	-8.769	0.100
284.500	0.997	0.100
284.600	-0.883	0.100
284.700	-3.497	0.100
284.800	-12.603	0.100
284.900	-5.894	0.100
285.000	8.624	0.100
285.100	-11.730	0.100
285.200	5.315	0.100
285.300	-6.401	0.100
285.400	-10.950	0.100
285.500	-5.692	0.100
285.600	1.494	0.100
285.700	0.144	0.100
285.800	-15.657	0.100
285.900	1.995	0.100
286.000	-7.299	0.100
286.100	-6.933	0.100
286.200	-11.556	0.100
286.300	-4.753	0.100
286.400	-7.798	0.100
286.500	-12.462	0.100
286.600	-17.717	0.100
286.700	-2.588	0.100
286.800	-4.795	0.100
286.900	-3.374	0.100
287.000	-5.763	0.100
287.100	0.705	0.100
287.200	-9.390	0.100
287.300	-6.637	0.100
287.400	-8.442	0.100
287.500	-1.263	0.100
287.600	-6.885	0.100
287.700	-7.505	0.100
287.800	-5.882	0.100
287.900	-3.659	0.100
288.000	-2.731	0.100
288.100	6.933	0.100
288.200	-9.957	0.100
288.300	-4.208	0.100
288.400	-2.606	0.100
288.500	-9.505	0.100
288.600	-5.496	0.100
288.700	-15.721	0.100
288.800	2.963	0.100
288.900	-11.786	0.100
289.000	-10.283	0.099
289.100	-2.107	0.099
289.200	-3.232	0.099
289.300	-4.612	0.099
289.400	-2.785	0.099
289.500	-23.054	0.099
289.600	-1.761	0.099
289.700	-18.553	0.099
289.800	-8.202	0.099
289.900	-2.246	0.099
290.000	2.462	0.099
290.100	-9.249	0.099
290.200	-7.690	0.099
290.300	3.404	0.099
290.400	-6.371	0.099
290.500	-7.709	0.099
290.600	-12.877	0.099
290.700	-3.649	0.099
290.800	-1.038	0.099
290.900	-11.973	0.099
291.000	0.097	0.099
291.100	7.719	0.099
291.200	-2.255	0.099
291.300	-13.795	0.099
291.400	-12.624	0.099
291.500	0.237	0.099
291.600	3.316	0.099
291.700	-12.788	0.099
291.800	-8.764	0.099
291.900	4.817	0.099
292.000	-15.930	0.099
292.100	-4.802	0.099
292.200	1.720	0.099
292.300	5.156	0.099
292.400	-6.658	0.099
292.500	-5.597	0.099
292.600	-4.738	0.099
292.700	-13.014	0.099
292.800	-7.959	0.099
292.900	0.451	0.099
293.000	-12.375	0.099
293.100	-10.639	0.099
293.200	-5.810	0.099
293.300	-5.070	0.099
293.400	-1.291	0.099
293.500	-5.719	0.099
293.600	-14.596	0.099
293.700	1.000	0.099
293.800	-6.478	0.099
293.900	-8.993	0.099
294.000	3.757	0.099
294.100	-4.940	0.099
294.200	-2.089	0.099
294.300	-5.403	0.099
294.400	-8.887	0.099
294.500	-10.942	0.099
294.600	-12.733	0.099
294.700	-8.552	0.099
294.800	-5.639	0.099
294.900	-24.316	0.099
295.000	-9.710	0.099
295.100	3.984	0.099
295.200	-11.553	0.099
295.300	-12.871	0.099
295.400	-3.571	0.099
295.500	-1.543	0.099
295.600	-1.903	0.099
295.700	5.505	0.099
295.800	-3.419	0.099
295.900	-3.903	0.099
296.000	-2.700	0.099
296.100	-2.996	0.099
296.200	-13.200	0.099
296.300	-19.123	0.099
296.400	-10.458	0.099
296.500	-3.202	0.099
296.600	0.518	0.099
296.700	-15.728	0.099
296.800	-6.017	0.099
296.900	-14.258	0.099
297.000	-2.927	0.099
297.100	-14.368	0.099
297.200	0.102	0.099
297.300	1.445	0.099
297.400	-0.300	0.099
297.500	-6.990	0.099
297.600	-6.430	0.099
297.700	-20.948	0.099
297.800	-6.150	0.099
297.900	-2.091	0.099
298.000	-3.669	0.099
298.100	-16.787	0.099
298.200	-16.401	0.099
298.300	3.936	0.099
298.400	-0.326	0.099
298.500	-10.461	0.099
298.600	-7.297	0.099
298.700	-3.026	0.099
298.800	-15.523	0.099
298.900	2.538	0.099
299.000	-0.735	0.099
299.100	-3.332	0.099
299.200	-5.617	0.099
299.300	-14.974	0.099
299.400	-4.017	0.099
299.500	-1.682	0.099
299.600	-1.702	0.099
299.700	-6.738	0.099
299.800	-21.083	0.099
299.900	-3.679	0.099
300.000	-8.831	0.099
300.100	-4.157	0.099
300.200	-5.081	0.099
300.300	-2.224	0.099
300.400	-7.195	0.099
300.500	-5.068	0.099
300.600	-7.203	0.099
300.700	-9.682	0.099
300.800	-20.652	0.099
300.900	3.204	0.099
301.000	-13.416	0.099
301.100	-1.038	0.099
301.200	-3.901	0.099
301.300	-1.860	0.099
301.400	-2.715	0.099
301.500	-5.828	0.099
301.600	-6.815	0.099
301.700	-2.101	0.099
301.800	-3.597	0.099
301.900	-10.824	0.099
302.000	-12.564	0.099
302.100	-5.920	0.099
302.200	0.844	0.099
302.300	0.298	0.099
302.400	-19.844	0.099
302.500	-11.897	0.099
302.600	-1.136	0.099
302.700	-2.813	0.099
302.800	1.060	0.099
302.900	14.139	0.099
303.000	-15.785	0.099
303.100	-0.436	0.099
303.200	-1.763	0.099
303.300	-9.725	0.099
303.400	-12.723	0.099
303.500	-14.508	0.099
303.600	1.638	0.099
303.700	-4.893	0.099
303.800	-10.008	0.099
303.900	-18.961	0.099
304.000	-5.638	0.099
304.100	-8.764	0.099
304.200	-10.502	0.099
304.300	-0.957	0.099
304.400	0.044	0.099
304.500	-18.707	0.099
304.600	-4.416	0.099
304.700	6.144	0.099
304.800	5.302	0.099
304.900	-7.690	0.099
305.000	-11.022	0.099
305.100	-20.335	0.099
305.200	-13.588	0.099
305.300	-9.548	0.099
305.400	-9.801	0.099
305.500	-10.518	0.099
305.600	-10.904	0.099
305.700	-2.374	0.099
305.800	4.890	0.099
305.900	-14.270	0.099
306.000	-7.936	0.099
306.100	-9.329	0.100
306.200	-17.381	0.100
306.300	-12.197	0.100
306.400	-6.273	0.100
306.500	-2.347	0.100
306.600	-2.682	0.100
306.700	-18.757	0.100
306.800	-4.304	0.100
306.900	-1.790	0.100
307.000	9.023	0.100
307.100	9.680	0.100
307.200	0.461	0.100
307.300	-11.021	0.100
307.400	-14.548	0.100
307.500	-5.907	0.100
307.600	2.237	0.100
307.700	8.015	0.100
307.800	-7.503	0.100
307.900	-1.425	0.100
308.000	-5.234	0.100
308.100	-7.246	0.100
308.200	2.583	0.100
308.300	-3.321	0.100
308.400	-5.900	0.100
308.500	-9.077	0.100
308.600	-14.171	0.100
308.700	-5.686	0.100
308.800	-0.085	0.100
308.900	2.197	0.100
309.000	-14.705	0.100
309.100	5.522	0.100
309.200	8.644	0.100
309.300	-5.091	0.100
309.400	-6.317	0.100
309.500	-10.220	0.100
309.600	-2.506	0.100
309.700	-3.466	0.100
309.800	-5.277	0.100
309.900	-1.918	0.100
310.000	-6.135	0.100
310.100	-10.036	0.100
310.200	-9.638	0.100
310.300	-24.764	0.100
310.400	-14.657	0.100
310.500	3.038	0.100
310.600	-14.854	0.100
310.700	3.696	0.100
310.800	-3.167	0.100
310.900	-6.806	0.100
311.000	-10.037	0.100
311.100	-12.406	0.100
311.200	-6.548	0.100
311.300	-10.994	0.100
311.400	3.246	0.100
311.500	-6.989	0.100
311.600	-9.391	0.100
311.700	-8.889	0.100
311.800	-1.254	0.100
311.900	-1.328	0.100
312.000	-0.474	0.100
312.100	-0.320	0.100
312.200	-18.357	0.100
312.300	-5.168	0.100
312.400	8.554	0.100
312.500	-3.237	0.100
312.600	-14.205	0.100
312.700	-10.937	0.100
312.800	-10.295	0.100
312.900	-2.736	0.100
313.000	-4.843	0.100
313.100	-1.707	0.100
313.200	-14.297	0.100
313.300	-7.551	0.100
313.400	-0.868	0.100
313.500	-7.076	0.100
313.600	-7.468	0.100
313.700	0.702	0.100
313.800	-0.237	0.100
313.900	-10.846	0.100
314.000	12.279	0.100
314.100	-6.764	0.100
314.200	-2.545	0.100
314.300	-16.049	0.100
314.400	-12.104	0.100
314.500	-5.810	0.100
314.600	5.742	0.100
314.700	8.327	0.100
314.800	-3.556	0.100
314.900	-9.144	0.100
315.000	-14.919	0.100
315.100	5.154	0.100
315.200	-7.124	0.100
315.300	-14.803	0.100
315.400	-0.178	0.100
315.500	-3.239	0.100
315.600	-6.479	0.100
315.700	-5.174	0.100
315.800	-3.077	0.100
315.900	-3.083	0.100
316.000	-16.449	0.100
316.100	10.854	0.100
316.200	-12.854	0.100
316.300	-9.636	0.100
316.400	11.988	0.100
316.500	-10.456	0.100
316.600	-7.484	0.100
316.700	-4.902	0.100
316.800	-6.162	0.100
316.900	-18.665	0.100
317.000	-13.030	0.100
317.100	-11.878	0.100
317.200	2.877	0.100
317.300	-2.393	0.100
317.400	-11.785	0.100
317.500	0.435	0.100
317.600	-4.171	0.100
317.700	-11.163	0.100
317.800	2.527	0.100
317.900	2.312	0.100
318.000	-13.152	0.100
318.100	-3.404	0.100
318.200	-18.525	0.100
318.300	1.129	0.100
318.400	-13.753	0.100
318.500	-16.713	0.100
318.600	-10.065	0.100
318.700	-2.309	0.100
318.800	-11.542	0.100
318.900	-11.741	0.100
319.000	3.095	0.100
319.100	4.739	0.100
319.200	8.795	0.100
319.300	-3.951	0.100
319.400	2.721	0.100
319.500	-12.148	0.100
319.600	-13.487	0.100
319.700	4.795	0.100
319.800	-7.606	0.100
319.900	-2.424	0.100
320.000	-6.505	0.100
320.100	-10.244	0.100
320.200	-3.670	0.100
320.300	-16.128	0.100
320.400	-7.379	0.100
320.500	-2.579	0.100
320.600	-7.424	0.100
320.700	-5.394	0.100
320.800	-10.263	0.100
320.900	-4.570	0.100
321.000	3.372	0.100
321.100	-1.139	0.100
321.200	-0.981	0.100
321.300	-10.139	0.100
321.400	-8.031	0.100
321.500	2.278	0.100
321.600	4.347	0.100
321.700	-14.365	0.100
321.800	0.890	0.100
321.900	-2.387	0.100
322.000	-5.860	0.100
322.100	-0.647	0.100
322.200	-3.149	0.100
322.300	-8.811	0.100
322.400	9.560	0.100
322.500	-6.084	0.100
322.600	3.431	0.100
322.700	-10.724	0.100
322.800	-10.918	0.100
322.900	-1.610	0.100
323.000	-9.884	0.100
323.100	-15.449	0.100
323.200	4.689	0.100
323.300	-4.151	0.100
323.400	8.348	0.100
323.500	-10.475	0.100
323.600	-6.969	0.100
323.700	-8.782	0.100
323.800	1.469	0.100
323.900	-6.978	0.100
324.000	-11.247	0.100
324.100	0.290	0.100
324.200	-12.153	0.100
324.300	-2.136	0.100
324.400	-2.620	0.100
324.500	-8.098	0.100
324.600	8.875	0.100
324.700	-0.056	0.100
324.800	-9.655	0.100
324.900	-0.330	0.100
325.000	-5.976	0.100
325.100	-10.003	0.100
325.200	-16.269	0.100
325.300	-10.852	0.100
325.400	-7.953	0.100
325.500	4.628	0.100
325.600	-2.514	0.100
325.700	3.802	0.100
325.800	-10.876	0.100
325.900	-8.566	0.100
326.000	-1.025	0.100
326.100	-11.343	0.100
326.200	-5.673	0.100
326.300	-3.153	0.100
326.400	-5.066	0.100
326.500	2.188	0.100
326.600	-2.349	0.100
326.700	-10.548	0.100
326.800	-9.134	0.100
326.900	1.386	0.100
327.000	-10.201	0.100
327.100	-1.633	0.100
327.200	-3.600	0.100
327.300	1.438	0.100
327.400	-11.603	0.100
327.500	2.956	0.100
327.600	-10.390	0.100
327.700	6.789	0.100
327.800	-2.240	0.100
327.900	-1.414	0.100
328.000	-2.033	0.100
328.100	-9.730	0.100
328.200	-5.509	0.100
328.300	-6.610	0.100
328.400	-2.816	0.100
328.500	-7.778	0.100
328.600	-5.272	0.100
328.700	-9.556	0.100
328.800	-12.852	0.100
328.900	-16.559	0.100
329.000	-10.399	0.100
329.100	2.656	0.100
329.200	-3.698	0.100
329.300	-2.230	0.100
329.400	-7.770	0.100
329.500	-22.762	0.100
329.600	-2.604	0.100
329.700	-8.172	0.100
329.800	-8.644	0.100
329.900	-8.474	0.100
330.000	2.312	0.100
330.100	-6.111	0.100
330.200	-4.587	0.100
330.300	-13.492	0.100
330.400	-6.485	0.100
330.500	-5.859	0.100
330.600	0.396	0.100
330.700	9.224	0.100
330.800	11.303	0.100
330.900	10.691	0.100
331.000	-15.154	0.100
331.100	-13.756	0.100
331.200	0.105	0.100
331.300	-9.986	0.100
331.400	-11.140	0.100
331.500	-5.023	0.100
331.600	14.828	0.100
331.700	-18.569	0.100
331.800	0.264	0.100
331.900	-1.091	0.100
332.000	12.442	0.100
332.100	1.734	0.100
332.200	5.766	0.100
332.300	0.640	0.100
332.400	-5.459	0.100
332.500	-5.230	0.100
332.600	7.424	0.100
332.700	-8.519	0.100
332.800	-2.102	0.100
332.900	-1.932	0.100
333.000	-0.915	0.100
333.100	-2.824	0.100
333.200	-2.267	0.100
333.300	3.178	0.100
333.400	8.044	0.100
333.500	-9.500	0.100
333.600	13.462	0.100
333.700	9.611	0.100
333.800	2.473	0.100
333.900	3.684	0.100
334.000	-2.570	0.100
334.100	4.212	0.100
334.200	2.661	0.100
334.300	2.842	0.100
334.400	-12.111	0.100
334.500	5.196	0.100
334.600	20.251	0.100
334.700	1.198	0.100
334.800	-2.616	0.100
334.900	-1.488	0.100
335.000	-8.388	0.100
335.100	-6.050	0.100
335.200	0.222	0.100
335.300	0.655	0.100
335.400	5.852	0.100
335.500	8.546	0.100
335.600	7.539	0.100
335.700	-1.851	0.100
335.800	0.843	0.100
335.900	5.762	0.100
336.000	0.154	0.100
336.100	7.583	0.100
336.200	7.852	0.100
336.300	-1.435	0.100
336.400	1.543	0.100
336.500	11.934	0.100
336.600	3.468	0.100
336.700	-1.354	0.100
336.800	3.200	0.100
336.900	0.455	0.100
337.000	2.548	0.100
337.100	-13.388	0.100
337.200	-4.371	0.100
337.300	-10.980	0.100
337.400	6.212	0.100
337.500	15.774	0.100
337.600	-12.143	0.100
337.700	9.736	0.100
337.800	-6.860	0.100
337.900	1.862	0.100
338.000	10.653	0.100
338.100	-0.822	0.100
338.200	8.915	0.100
338.300	3.868	0.100
338.400	-0.785	0.100
338.500	-1.088	0.100
338.600	-1.718	0.100
338.700	-6.353	0.100
338.800	1.582	0.100
338.900	1.112	0.100
339.000	3.743	0.100
339.100	5.063	0.100
339.200	3.930	0.100
339.300	-6.910	0.100
339.400	-13.371	0.100
339.500	3.152	0.100
339.600	-0.400	0.100
339.700	6.193	0.100
339.800	-1.257	0.100
339.900	10.907	0.100
340.000	21.186	0.100
340.100	8.792	0.100
340.200	8.887	0.100
340.300	10.077	0.100
340.400	-2.555	0.100
340.500	10.594	0.100
340.600	8.384	0.100
340.700	4.109	0.100
340.800	3.621	0.100
340.900	7.085	0.100
341.000	-1.861	0.100
341.100	-3.676	0.100
341.200	11.792	0.100
341.300	6.028	0.100
341.400	5.853	0.100
341.500	5.693	0.100
341.600	0.835	0.100
341.700	-2.212	0.100
341.800	9.414	0.100
341.900	7.682	0.100
342.000	3.544	0.100
342.100	-5.067	0.100
342.200	1.431	0.100
342.300	3.346	0.100
342.400	3.281	0.100
342.500	-5.187	0.100
342.600	-4.347	0.100
342.700	0.264	0.100
342.800	4.065	0.100
342.900	11.817	0.100
343.000	13.563	0.100
343.100	-2.949	0.100
343.200	5.591	0.100
343.300	3.026	0.100
343.400	-7.778	0.100
343.500	13.705	0.100
343.600	5.929	0.100
343.700	6.884	0.100
343.800	0.339	0.100
343.900	9.059	0.100
344.000	6.652	0.100
344.100	4.336	0.100
344.200	-3.069	0.100
344.300	4.986	0.100
344.400	18.189	0.100
344.500	-13.301	0.100
344.600	-7.880	0.100
344.700	20.317	0.100
344.800	10.962	0.100
344.900	10.724	0.100
345.000	6.440	0.100
345.100	-2.204	0.100
345.200	-16.653	0.100
345.300	22.418	0.100
345.400	-0.922	0.100
345.500	20.497	0.100
345.600	9.388	0.100
345.700	13.899	0.100
345.800	0.578	0.100
345.900	8.630	0.100
346.000	10.772	0.100
346.100	-0.359	0.100
346.200	10.006	0.100
346.300	6.017	0.100
346.400	7.391	0.100
346.500	10.749	0.100
346.600	7.393	0.100
346.700	-2.963	0.100
346.800	4.302	0.100
346.900	9.885	0.100
347.000	5.822	0.100
347.100	6.592	0.100
347.200	2.850	0.100
347.300	-1.976	0.100
347.400	-4.523	0.100
347.500	23.828	0.100
347.600	9.255	0.100
347.700	13.360	0.100
347.800	7.298	0.100
347.900	-8.195	0.100
348.000	12.884	0.100
348.100	13.771	0.100
348.200	9.013	0.100
348.300	-0.314	0.100
348.400	-6.207	0.100
348.500	-2.993	0.100
348.600	20.131	0.100
348.700	4.432	0.100
348.800	4.105	0.100
348.900	4.111	0.100
349.000	-5.712	0.100
349.100	16.088	0.100
349.200	9.827	0.100
349.300	9.317	0.100
349.400	3.053	0.100
349.500	7.961	0.100
349.600	4.287	0.100
349.700	13.066	0.100
349.800	6.403	0.100
349.900	4.305	0.100
350.000	14.652	0.100
350.100	8.076	0.100
350.200	-3.440	0.100
350.300	-0.153	0.100
350.400	15.283	0.100
350.500	3.174	0.100
350.600	16.867	0.100
350.700	-5.071	0.100
350.800	7.610	0.100
350.900	8.437	0.100
351.000	15.057	0.100
351.100	13.575	0.100
351.200	5.511	0.100
351.300	0.613	0.100
351.400	4.115	0.100
351.500	-2.051	0.100
351.600	15.866	0.100
351.700	19.500	0.100
351.800	3.334	0.100
351.900	15.952	0.100
352.000	16.266	0.100
352.100	12.817	0.100
352.200	8.806	0.100
352.300	-5.127	0.100
352.400	5.982	0.100
352.500	16.071	0.100
352.600	9.951	0.100
352.700	5.915	0.100
352.800	5.967	0.100
352.900	11.839	0.100
353.000	12.130	0.100
353.100	1.259	0.100
353.200	12.177	0.100
353.300	0.740	0.100
353.400	5.551	0.100
353.500	9.420	0.100
353.600	9.599	0.100
353.700	7.782	0.100
353.800	15.949	0.100
353.900	14.779	0.100
354.000	9.447	0.100
354.100	6.525	0.100
354.200	6.219	0.100
354.300	7.683	0.100
354.400	4.816	0.100
354.500	19.713	0.100
354.600	30.031	0.100
354.700	10.853	0.100
354.800	6.028	0.100
354.900	-0.303	0.100
355.000	13.532	0.100
355.100	-0.901	0.100
355.200	6.309	0.100
355.300	8.062	0.100
355.400	19.314	0.100
355.500	5.743	0.100
355.600	-1.078	0.100
355.700	9.586	0.100
355.800	20.759	0.100
355.900	9.454	0.100
356.000	10.830	0.100
356.100	10.539	0.099
356.200	5.528	0.099
356.300	10.261	0.099
356.400	5.625	0.099
356.500	9.022	0.099
356.600	8.007	0.099
356.700	2.458	0.099
356.800	17.676	0.099
356.900	10.633	0.099
357.000	9.646	0.099
357.100	15.685	0.099
357.200	13.570	0.099
357.300	20.428	0.099
357.400	15.202	0.099
357.500	9.785	0.099
357.600	11.175	0.099
357.700	17.456	0.099
357.800	7.156	0.099
357.900	16.051	0.099
358.000	13.725	0.099
358.100	30.137	0.099
358.200	0.017	0.099
358.300	1.407	0.099
358.400	9.595	0.099
358.500	8.573	0.099
358.600	10.429	0.099
358.700	8.361	0.099
358.800	9.254	0.099
358.900	16.760	0.099
359.000	13.620	0.099
359.100	-2.341	0.099
359.200	16.930	0.099
359.300	17.349	0.099
359.400	3.437	0.099
359.500	18.799	0.099
359.600	8.351	0.099
359.700	8.291	0.099
359.800	6.453	0.099
359.900	13.692	0.099
360.000	19.579	0.099
360.100	22.386	0.099
360.200	9.728	0.099
360.300	-4.189	0.099
360.400	19.784	0.099
360.500	8.215	0.099
360.600	19.528	0.099
360.700	11.191	0.099
360.800	22.577	0.099
360.900	8.142	0.099
361.000	9.707	0.099
361.100	19.503	0.099
361.200	18.920	0.099
361.300	11.046	0.099
361.400	13.971	0.099
361.500	-0.353	0.099
361.600	21.785	0.099
361.700	16.220	0.099
361.800	8.666	0.099
361.900	6.566	0.099
362.000	6.100	0.099
362.100	18.708	0.099
362.200	7.836	0.099
362.300	26.928	0.099
362.400	10.762	0.099
362.500	7.318	0.099
362.600	7.210	0.099
362.700	14.934	0.099
362.800	9.724	0.099
362.900	12.936	0.099
363.000	13.808	0.099
363.100	16.154	0.099
363.200	2.360	0.099
363.300	11.391	0.099
363.400	28.328	0.099
363.500	-5.824	0.099
363.600	6.964	0.099
363.700	19.580	0.099
363.800	11.385	0.099
363.900	1.281	0.099
364.000	9.381	0.099
364.100	13.395	0.099
364.200	23.785	0.099
364.300	13.210	0.099
364.400	17.450	0.099
364.500	4.036	0.099
364.600	4.944	0.099
364.700	12.596	0.099
364.800	23.124	0.099
364.900	19.158	0.099
365.000	9.438	0.099
365.100	7.775	0.099
365.200	5.408	0.099
365.300	21.061	0.099
365.400	9.736	0.099
365.500	7.058	0.099
365.600	10.625	0.099
365.700	17.444	0.099
365.800	9.139	0.099
365.900	6.298	0.099
366.000	5.189	0.099
366.100	6.937	0.099
366.200	5.665	0.099
366.300	16.882	0.099
366.400	25.569	0.099
366.500	20.801	0.099
366.600	26.631	0.099
366.700	21.164	0.099
366.800	15.792	0.099
366.900	23.497	0.099
367.000	2.317	0.099
367.100	18.891	0.099
367.200	13.043	0.099
367.300	11.626	0.100
367.400	18.892	0.099
367.500	6.562	0.099
367.600	0.518	0.100
367.700	14.271	0.100
367.800	15.957	0.100
367.900	27.194	0.100
368.000	16.823	0.100
368.100	17.592	0.100
368.200	13.118	0.100
368.300	5.340	0.100
368.400	24.466	0.099
368.500	24.777	0.100
368.600	-8.674	0.100
368.700	10.639	0.100
368.800	24.626	0.099
368.900	24.969	0.099
369.000	28.177	0.100
369.100	18.811	0.100
369.200	16.217	0.099
369.300	19.934	0.100
369.400	16.637	0.100
369.500	20.220	0.100
369.600	17.552	0.100
369.700	23.084	0.100
369.800	9.677	0.100
369.900	3.253	0.100
370.000	7.296	0.100
370.100	8.489	0.100
370.200	13.216	0.100
370.300	8.779	0.100
370.400	18.146	0.100
370.500	1.597	0.100
370.600	21.590	0.100
370.700	1.456	0.100
370.800	28.477	0.099
370.900	22.006	0.100
371.000	12.193	0.100
371.100	20.865	0.100
371.200	16.430	0.100
371.300	16.983	0.100
371.400	3.432	0.100
371.500	23.423	0.099
371.600	21.351	0.100
371.700	8.407	0.099
371.800	20.420	0.099
371.900	7.248	0.099
372.000	21.602	0.100
372.100	19.588	0.100
372.200	4.706	0.100
372.300	16.822	0.100
372.400	11.893	0.099
372.500	18.411	0.100
372.600	11.241	0.099
372.700	13.568	0.099
372.800	6.508	0.100
372.900	15.462	0.100
373.000	17.459	0.100
373.100	14.896	0.100
373.200	13.912	0.100
373.300	20.781	0.100
373.400	12.435	0.100
373.500	20.911	0.100
373.600	9.831	0.100
373.700	11.151	0.100
373.800	22.591	0.100
373.900	8.457	0.100
374.000	16.245	0.100
374.100	21.192	0.100
374.200	19.896	0.100
374.300	16.971	0.100
374.400	6.758	0.100
374.500	16.817	0.100
374.600	18.502	0.100
374.700	14.181	0.100
374.800	13.790	0.100
374.900	20.620	0.100
375.000	29.355	0.100
375.100	6.249	0.100
375.200	16.517	0.100
375.300	20.144	0.100
375.400	3.722	0.100
375.500	11.598	0.100
375.600	12.058	0.100
375.700	11.785	0.100
375.800	17.188	0.100
375.900	10.081	0.100
376.000	17.757	0.100
376.100	22.620	0.100
376.200	13.781	0.100
376.300	12.817	0.100
376.400	21.551	0.100
376.500	7.807	0.100
376.600	20.297	0.100
376.700	26.585	0.100
376.800	19.613	0.100
376.900	14.142	0.100
377.000	6.596	0.100
377.100	8.717	0.100
377.200	9.786	0.100
377.300	14.315	0.100
377.400	13.278	0.100
377.500	14.602	0.100
377.600	19.561	0.100
377.700	9.977	0.100
377.800	16.505	0.100
377.900	18.104	0.100
378.000	8.126	0.100
378.100	21.201	0.100
378.200	29.842	0.100
378.300	7.523	0.100
378.400	18.357	0.100
378.500	17.745	0.100
378.600	-1.859	0.100
378.700	13.819	0.100
378.800	12.669	0.100
378.900	13.913	0.100
379.000	14.699	0.100
379.100	27.186	0.100
379.200	16.495	0.100
379.300	8.871	0.100
379.400	16.034	0.100
379.500	18.155	0.100
379.600	10.626	0.100
379.700	18.640	0.100
379.800	13.975	0.100
379.900	19.853	0.100
380.000	9.585	0.100
380.100	20.740	0.100
380.200	13.733	0.100
380.300	23.821	0.100
380.400	13.767	0.100
380.500	14.942	0.100
380.600	11.829	0.100
380.700	22.068	0.100
380.800	15.347	0.100
380.900	13.720	0.100
381.000	13.681	0.100
381.100	19.754	0.100
381.200	24.923	0.100
381.300	16.042	0.100
381.400	3.488	0.100
381.500	4.247	0.100
381.600	23.284	0.100
381.700	7.698	0.100
381.800	19.670	0.100
381.900	21.034	0.100
382.000	21.583	0.100
382.100	19.964	0.100
382.200	11.853	0.100
382.300	14.642	0.100
382.400	9.225	0.100
382.500	15.576	0.100
382.600	19.942	0.100
382.700	11.096	0.100
382.800	18.365	0.100
382.900	-1.727	0.100
383.000	15.455	0.100
383.100	25.406	0.100
383.200	14.141	0.100
383.300	23.385	0.100
383.400	13.570	0.100
383.500	17.355	0.100
383.600	18.126	0.100
383.700	11.573	0.100
383.800	9.860	0.100
383.900	13.259	0.100
384.000	9.714	0.100
384.100	13.585	0.099
384.200	18.140	0.099
384.300	26.538	0.099
384.400	6.792	0.099
384.500	23.181	0.099
384.600	13.636	0.099
384.700	17.914	0.099
384.800	18.956	0.099
384.900	8.788	0.099
385.000	19.410	0.099
385.100	12.250	0.099
385.200	22.932	0.099
385.300	14.723	0.099
385.400	18.275	0.099
385.500	-4.893	0.099
385.600	9.038	0.099
385.700	12.755	0.099
385.800	30.405	0.099
385.900	7.655	0.099
386.000	5.775	0.099
386.100	24.303	0.099
386.200	14.369	0.099
386.300	8.330	0.099
386.400	19.150	0.099
386.500	21.748	0.099
386.600	18.836	0.099
386.700	12.385	0.099
386.800	6.940	0.099
386.900	22.070	0.099
387.000	12.666	0.099
387.100	8.287	0.099
387.200	33.696	0.099
387.300	8.479	0.099
387.400	22.685	0.099
387.500	13.936	0.099
387.600	10.775	0.099
387.700	14.342	0.099
387.800	16.103	0.099
387.900	23.414	0.099
388.000	-2.209	0.099
388.100	16.250	0.099
388.200	20.290	0.099
388.300	23.983	0.099
388.400	9.517	0.099
388.500	9.177	0.099
388.600	19.616	0.099
388.700	21.123	0.099
388.800	15.826	0.099
388.900	16.402	0.099
389.000	13.449	0.099
389.100	18.014	0.099
389.200	15.322	0.099
389.300	16.200	0.099
389.400	10.263	0.099
389.500	10.734	0.099
389.600	7.583	0.099
389.700	13.134	0.099
389.800	16.887	0.099
389.900	10.780	0.099
390.000	7.689	0.099
390.100	1.580	0.099
390.200	6.217	0.099
390.300	23.985	0.099
390.400	10.507	0.099
390.500	26.736	0.099
390.600	14.562	0.099
390.700	14.629	0.099
390.800	14.461	0.099
390.900	11.019	0.099
391.000	21.178	0.099
391.100	21.773	0.099
391.200	7.591	0.099
391.300	7.636	0.099
391.400	15.597	0.099
391.500	19.325	0.099
391.600	7.887	0.099
391.700	13.215	0.099
391.800	15.987	0.099
391.900	12.695	0.099
392.000	4.781	0.099
392.100	14.428	0.099
392.200	20.112	0.099
392.300	19.761	0.099
392.400	13.756	0.099
392.500	19.320	0.099
392.600	0.558	0.099
392.700	11.168	0.099
392.800	0.232	0.099
392.900	13.922	0.099
393.000	3.760	0.099
393.100	8.691	0.099
393.200	3.059	0.099
393.300	10.427	0.099
393.400	16.748	0.099
393.500	14.284	0.099
393.600	6.729	0.099
393.700	16.202	0.099
393.800	6.168	0.099
393.900	7.309	0.099
394.000	15.208	0.099
394.100	-7.425	0.099
394.200	24.694	0.099
394.300	9.811	0.099
394.400	18.139	0.099
394.500	2.252	0.099
394.600	10.868	0.099
394.700	26.575	0.099
394.800	16.683	0.099
394.900	2.097	0.099
395.000	-5.577	0.099
395.100	-2.194	0.099
395.200	2.772	0.099
395.300	25.224	0.100
395.400	20.764	0.100
395.500	7.318	0.099
395.600	1.187	0.100
395.700	6.254	0.100
395.800	8.579	0.100
395.900	2.836	0.100
396.000	19.827	0.100
396.100	6.658	0.100
396.200	-0.061	0.100
396.300	13.308	0.100
396.400	0.728	0.100
396.500	11.572	0.100
396.600	12.872	0.100
396.700	-4.589	0.100
396.800	1.788	0.100
396.900	16.097	0.100
397.000	13.467	0.100
397.100	2.341	0.100
397.200	8.895	0.100
397.300	8.342	0.100
397.400	10.947	0.100
397.500	-5.854	0.100
397.600	0.663	0.100
397.700	25.659	0.100
397.800	9.347	0.100
397.900	8.735	0.100
398.000	13.825	0.100
398.100	-3.614	0.100
398.200	15.428	0.100
398.300	8.801	0.100
398.400	1.107	0.100
398.500	-3.663	0.100
398.600	-1.578	0.100
398.700	14.168	0.100
398.800	4.365	0.100
398.900	14.806	0.100
399.000	12.440	0.100
399.100	2.084	0.100
399.200	5.647	0.100
399.300	11.853	0.100
399.400	3.179	0.100
399.500	13.805	0.100
399.600	13.377	0.100
399.700	12.215	0.100
399.800	6.512	0.100
399.900	5.022	0.100
400.000	6.556	0.100
400.100	4.173	0.100
400.200	-0.613	0.100
400.300	7.154	0.100
400.400	-3.265	0.100
400.500	20.274	0.100
400.600	16.047	0.100
400.700	-2.493	0.100
400.800	2.749	0.100
400.900	3.500	0.100
401.000	4.665	0.100
401.100	15.172	0.100
401.200	13.893	0.100
401.300	16.380	0.100
401.400	2.028	0.100
401.500	6.228	0.100
401.600	-0.465	0.100
401.700	12.864	0.100
401.800	12.147	0.100
401.900	14.664	0.100
402.000	8.144	0.100
402.100	-16.719	0.100
402.200	7.092	0.100
402.300	15.380	0.100
402.400	5.489	0.100
402.500	17.282	0.100
402.600	11.614	0.100
402.700	4.742	0.100
402.800	0.166	0.100
402.900	6.612	0.100
403.000	-3.389	0.100
403.100	-1.395	0.100
403.200	14.016	0.100
403.300	7.586	0.100
403.400	-0.428	0.100
403.500	9.703	0.100
403.600	6.078	0.100
403.700	5.536	0.100
403.800	16.932	0.100
403.900	4.778	0.100
404.000	10.623	0.100
404.100	10.921	0.100
404.200	-4.487	0.100
404.300	0.474	0.100
404.400	4.653	0.100
404.500	-1.054	0.100
404.600	-4.181	0.100
404.700	4.350	0.100
404.800	9.145	0.100
404.900	4.923	0.100
405.000	0.340	0.100
405.100	4.795	0.100
405.200	6.604	0.100
405.300	9.675	0.100
405.400	8.345	0.100
405.500	3.597	0.100
405.600	8.530	0.100
405.700	-2.865	0.100
405.800	2.476	0.100
405.900	6.216	0.100
406.000	1.890	0.100
406.100	10.043	0.100
406.200	10.673	0.100
406.300	7.112	0.100
406.400	-3.758	0.100
406.500	16.567	0.099
406.600	7.893	0.099
406.700	5.851	0.100
406.800	4.115	0.099
406.900	-0.382	0.099
407.000	-3.099	0.099
407.100	11.983	0.099
407.200	-4.150	0.099
407.300	8.135	0.099
407.400	-3.636	0.099
407.500	-5.603	0.099
407.600	4.204	0.099
407.700	7.457	0.099
407.800	4.111	0.099
407.900	8.712	0.099
408.000	2.437	0.099
408.100	-7.305	0.099
408.200	5.849	0.099
408.300	14.821	0.099
408.400	-4.402	0.099
408.500	-0.128	0.099
408.600	5.793	0.099
408.700	-3.698	0.099
408.800	-0.204	0.099
408.900	5.060	0.099
409.000	16.360	0.099
409.100	10.218	0.099
409.200	6.574	0.099
409.300	-5.348	0.099
409.400	8.679	0.099
409.500	-1.439	0.099
409.600	0.587	0.099
409.700	-0.882	0.099
409.800	2.513	0.099
409.900	-0.105	0.099
410.000	7.859	0.099
410.100	8.348	0.099
410.200	-13.026	0.099
410.300	1.024	0.099
410.400	15.178	0.099
410.500	-1.663	0.099
410.600	-1.386	0.099
410.700	3.547	0.099
410.800	4.729	0.099
410.900	3.010	0.099
411.000	3.434	0.099
411.100	2.395	0.099
411.200	3.037	0.099
411.300	2.475	0.099
411.400	11.774	0.099
411.500	-6.479	0.099
411.600	9.543	0.099
411.700	11.388	0.099
411.800	7.273	0.099
411.900	0.429	0.099
412.000	-4.958	0.099
412.100	-1.272	0.099
412.200	4.175	0.099
412.300	0.713	0.099
412.400	-0.472	0.099
412.500	-2.486	0.099
412.600	-6.841	0.099
412.700	-0.860	0.099
412.800	14.239	0.099
412.900	8.641	0.099
413.000	3.006	0.099
413.100	-0.639	0.099
413.200	8.724	0.099
413.300	-9.806	0.099
413.400	-1.429	0.099
413.500	2.476	0.099
413.600	7.893	0.099
413.700	7.506	0.099
413.800	-2.467	0.099
413.900	2.169	0.099
414.000	12.364	0.099
414.100	-15.499	0.099
414.200	-0.857	0.099
414.300	15.116	0.099
414.400	-4.966	0.099
414.500	-3.045	0.099
414.600	0.505	0.099
414.700	5.931	0.099
414.800	-1.754	0.099
414.900	-0.703	0.099
415.000	-4.358	0.099
415.100	-6.700	0.099
415.200	-5.272	0.099
415.300	4.965	0.099
415.400	3.501	0.099
415.500	6.290	0.099
415.600	-1.370	0.099
415.700	6.318	0.099
415.800	6.915	0.099
415.900	-12.542	0.099
416.000	-17.463	0.099
416.100	3.192	0.099
416.200	13.796	0.099
416.300	1.589	0.099
416.400	-9.147	0.099
416.500	2.583	0.099
416.600	1.505	0.099
416.700	-1.726	0.099
416.800	5.893	0.099
416.900	10.984	0.099
417.000	2.447	0.099
417.100	-11.417	0.099
417.200	-2.526	0.099
417.300	1.927	0.099
417.400	0.978	0.099
417.500	-1.120	0.099
417.600	3.253	0.099
417.700	-1.711	0.099
417.800	1.804	0.099
417.900	3.486	0.099
418.000	4.159	0.099
418.100	3.212	0.099
418.200	6.418	0.099
418.300	-2.621	0.099
418.400	-11.889	0.099
418.500	9.186	0.099
418.600	3.911	0.099
418.700	-0.836	0.099
418.800	-14.974	0.099
418.900	0.206	0.099
419.000	0.696	0.099
419.100	-0.076	0.099
419.200	-11.513	0.099
419.300	-4.837	0.099
419.400	-0.679	0.099
419.500	-17.929	0.099
419.600	-3.298	0.099
419.700	4.886	0.099
419.800	-7.392	0.099
419.900	-3.200	0.099
420.000	-8.493	0.099
420.100	6.935	0.099
420.200	7.866	0.099
420.300	-2.191	0.099
420.400	-8.433	0.099
420.500	-5.092	0.099
420.600	8.050	0.099
420.700	13.116	0.099
420.800	-8.205	0.099
420.900	-15.131	0.100
421.000	-7.417	0.099
421.100	-1.330	0.099
421.200	0.390	0.099
421.300	-11.401	0.100
421.400	-13.325	0.099
421.500	-9.394	0.099
421.600	-7.389	0.099
421.700	17.183	0.100
421.800	6.975	0.100
421.900	-1.776	0.099
422.000	3.999	0.100
422.100	-0.894	0.099
422.200	0.641	0.099
422.300	-10.529	0.099
422.400	-3.127	0.100
422.500	-11.760	0.100
422.600	-1.581	0.100
422.700	-9.708	0.100
422.800	8.644	0.099
422.900	-18.008	0.099
423.000	14.846	0.100
423.100	-0.288	0.100
423.200	-4.870	0.100
423.300	-0.148	0.100
423.400	-9.582	0.100
423.500	-11.171	0.100
423.600	-6.279	0.100
423.700	-6.206	0.100
423.800	1.708	0.100
423.900	5.093	0.100
424.000	4.436	0.100
424.100	-6.786	0.100
424.200	-16.186	0.100
424.300	-9.290	0.100
424.400	-2.040	0.100
424.500	5.049	0.100
424.600	15.377	0.100
424.700	-11.703	0.100
424.800	-2.890	0.100
424.900	-2.277	0.100
425.000	5.950	0.100
425.100	0.968	0.100
425.200	3.028	0.100
425.300	-11.440	0.100
425.400	-2.583	0.100
425.500	2.618	0.100
425.600	-17.217	0.100
425.700	6.726	0.100
425.800	1.372	0.100
425.900	-4.408	0.100
426.000	0.802	0.100
426.100	-9.745	0.100
426.200	-8.069	0.100
426.300	5.917	0.100
426.400	-13.582	0.100
426.500	2.424	0.100
426.600	1.308	0.100
426.700	-7.702	0.100
426.800	-8.858	0.100
426.900	-1.152	0.100
427.000	1.151	0.100
427.100	-6.269	0.100
427.200	2.451	0.100
427.300	6.478	0.100
427.400	0.894	0.100
427.500	-1.915	0.100
427.600	-2.942	0.100
427.700	-7.028	0.100
427.800	-15.439	0.100
427.900	0.062	0.100
428.000	-0.253	0.100
428.100	-10.027	0.100
428.200	-5.753	0.100
428.300	1.433	0.100
428.400	-2.985	0.100
428.500	-4.518	0.100
428.600	-2.025	0.100
428.700	-13.641	0.100
428.800	3.045	0.100
428.900	-4.874	0.100
429.000	-1.892	0.100
429.100	-4.859	0.100
429.200	3.197	0.100
429.300	-8.231	0.100
429.400	19.083	0.100
429.500	-13.436	0.100
429.600	-2.453	0.100
429.700	-7.877	0.100
429.800	-0.436	0.100
429.900	0.499	0.100
430.000	-5.116	0.100
430.100	1.475	0.100
430.200	-11.147	0.100
430.300	9.691	0.100
430.400	2.735	0.100
430.500	-11.873	0.100
430.600	-8.479	0.100
430.700	-6.639	0.100
430.800	0.159	0.100
430.900	-7.216	0.100
431.000	-4.689	0.100
431.100	-11.868	0.100
431.200	-4.205	0.100
431.300	-0.892	0.100
431.400	-18.194	0.100
431.500	1.083	0.100
431.600	1.233	0.100
431.700	6.249	0.100
431.800	-2.579	0.100
431.900	-15.240	0.100
432.000	-0.804	0.100
432.100	7.636	0.100
432.200	0.551	0.100
432.300	-5.925	0.100
432.400	-10.380	0.100
432.500	-13.970	0.100
432.600	12.452	0.100
432.700	5.766	0.100
432.800	-11.430	0.100
432.900	1.725	0.100
433.000	-2.195	0.100
433.100	-13.681	0.100
433.200	-6.880	0.100
433.300	-4.789	0.100
433.400	-8.091	0.100
433.500	10.132	0.100
433.600	-10.376	0.100
433.700	-10.901	0.100
433.800	-10.918	0.100
433.900	-0.774	0.100
434.000	-4.568	0.100
434.100	2.691	0.100
434.200	-12.966	0.100
434.300	-7.794	0.100
434.400	-3.336	0.100
434.500	-2.377	0.100
434.600	-7.327	0.100
434.700	3.288	0.100
434.800	8.180	0.100
434.900	-8.974	0.100
435.000	-6.870	0.100
435.100	1.937	0.100
435.200	-8.377	0.100
435.300	-13.879	0.100
435.400	-3.300	0.100
435.500	-3.946	0.100
435.600	7.682	0.100
435.700	2.376	0.100
435.800	-12.861	0.100
435.900	0.453	0.100
436.000	-13.630	0.100
436.100	10.178	0.100
436.200	-3.408	0.100
436.300	-6.782	0.100
436.400	-8.115	0.100
436.500	-14.286	0.100
436.600	-10.162	0.100
436.700	-7.677	0.100
436.800	0.458	0.100
436.900	-17.866	0.100
437.000	7.655	0.100
437.100	0.099	0.100
437.200	-7.523	0.100
437.300	-9.306	0.100
437.400	-14.334	0.100
437.500	-0.549	0.100
437.600	-3.801	0.100
437.700	-3.969	0.100
437.800	1.873	0.100
437.900	2.243	0.100
438.000	1.083	0.100
438.100	-6.689	0.100
438.200	-3.555	0.100
438.300	-5.187	0.100
438.400	-13.016	0.100
438.500	-6.904	0.100
438.600	-18.019	0.100
438.700	-3.835	0.100
438.800	1.445	0.100
438.900	-5.543	0.100
439.000	-2.404	0.100
439.100	4.764	0.100
439.200	-3.365	0.100
439.300	-10.115	0.100
439.400	-0.382	0.100
439.500	-8.068	0.100
439.600	-24.599	0.100
439.700	8.465	0.100
439.800	-6.416	0.100
439.900	-0.036	0.100
440.000	-7.110	0.100
440.100	3.912	0.100
440.200	-1.180	0.100
440.300	-6.571	0.100
440.400	-8.483	0.100
440.500	-9.043	0.100
440.600	-0.909	0.100
440.700	-5.467	0.100
440.800	-4.405	0.100
440.900	7.796	0.100
441.000	-14.612	0.100
441.100	-0.720	0.100
441.200	-0.233	0.100
441.300	-6.664	0.100
441.400	0.770	0.100
441.500	-14.457	0.100
441.600	-15.234	0.100
441.700	-4.175	0.100
441.800	-6.988	0.100
441.900	-4.121	0.100
442.000	-4.566	0.100
442.100	-6.900	0.100
442.200	4.619	0.100
442.300	-7.630	0.100
442.400	3.460	0.100
442.500	-10.339	0.100
442.600	-3.106	0.100
442.700	-16.250	0.100
442.800	0.360	0.100
442.900	7.570	0.100
443.000	-12.833	0.100
443.100	-13.061	0.100
443.200	0.648	0.100
443.300	2.471	0.100
443.400	-10.310	0.100
443.500	-6.702	0.100
443.600	3.486	0.100
443.700	-5.216	0.100
443.800	-19.234	0.100
443.900	6.530	0.100
444.000	-3.047	0.100
444.100	-5.138	0.100
444.200	-5.769	0.100
444.300	0.869	0.100
444.400	-7.193	0.100
444.500	-3.746	0.100
444.600	-13.042	0.100
444.700	-5.035	0.100
444.800	-13.321	0.100
444.900	-2.579	0.100
445.000	-16.484	0.100
445.100	-11.162	0.100
445.200	4.453	0.100
445.300	-0.569	0.100
445.400	-10.517	0.100
445.500	-16.699	0.100
445.600	-11.481	0.100
445.700	9.754	0.100
445.800	-10.662	0.100
445.900	-7.043	0.100
446.000	-4.340	0.100
446.100	-0.289	0.100
446.200	-10.471	0.100
446.300	-12.866	0.100
446.400	-13.002	0.100
446.500	-2.655	0.100
446.600	-13.801	0.100
446.700	-6.777	0.100
446.800	5.162	0.100
446.900	-4.003	0.100
447.000	-9.590	0.100
447.100	2.018	0.100
447.200	0.785	0.100
447.300	-7.736	0.100
447.400	3.827	0.100
447.500	2.173	0.100
447.600	-8.053	0.100
447.700	6.768	0.100
447.800	-9.301	0.100
447.900	-8.321	0.100
448.000	0.145	0.100
448.100	-10.866	0.100
448.200	-1.697	0.100
448.300	-13.241	0.100
448.400	-2.473	0.100
448.500	-21.062	0.100
448.600	-2.461	0.100
448.700	-0.776	0.100
448.800	-9.477	0.100
448.900	-14.244	0.100
449.000	3.611	0.100
449.100	2.079	0.100
449.200	0.005	0.100
449.300	-17.878	0.100
449.400	-18.396	0.100
449.500	3.174	0.100
449.600	12.450	0.100
449.700	-3.101	0.100
449.800	-8.213	0.100
449.900	-12.825	0.100
450.000	-2.212	0.100
450.100	7.259	0.100
450.200	-2.678	0.100
450.300	-7.037	0.100
450.400	-0.820	0.100
450.500	-2.797	0.100
450.600	5.307	0.100
450.700	-7.313	0.100
450.800	-14.765	0.100
450.900	13.992	0.100
451.000	-19.314	0.100
451.100	-5.706	0.100
451.200	-9.745	0.100
451.300	1.883	0.100
451.400	-8.449	0.100
451.500	-6.523	0.100
451.600	-9.001	0.100
451.700	0.844	0.100
451.800	-8.263	0.100
451.900	-6.881	0.100
452.000	-10.728	0.100
452.100	-8.752	0.100
452.200	-9.152	0.100
452.300	10.055	0.100
452.400	-13.044	0.100
452.500	-2.061	0.100
452.600	-6.934	0.100
452.700	-1.310	0.100
452.800	-15.408	0.100
452.900	-3.224	0.100
453.000	0.665	0.100
453.100	1.034	0.100
453.200	1.119	0.100
453.300	-11.532	0.100
453.400	-12.480	0.100
453.500	-6.210	0.100
453.600	-16.199	0.100
453.700	-12.007	0.100
453.800	-3.219	0.100
453.900	-3.420	0.100
454.000	-17.971	0.100
454.100	-7.870	0.100
454.200	5.941	0.100
454.300	-0.133	0.100
454.400	-9.791	0.100
454.500	-7.098	0.100
454.600	-1.671	0.100
454.700	-8.768	0.100
454.800	-4.697	0.100
454.900	-0.602	0.100
455.000	-12.288	0.100
455.100	-17.487	0.100
455.200	-3.609	0.100
455.300	1.699	0.100
455.400	-18.978	0.100
455.500	-2.037	0.100
455.600	0.811	0.100
455.700	-4.958	0.100
455.800	3.962	0.100
455.900	1.239	0.100
456.000	-8.223	0.100
456.100	-9.871	0.100
456.200	-11.330	0.100
456.300	5.678	0.100
456.400	-2.345	0.100
456.500	-2.792	0.100
456.600	-12.141	0.100
456.700	-6.755	0.100
456.800	-2.463	0.100
456.900	-5.938	0.100
457.000	-8.866	0.100
457.100	-6.182	0.100
457.200	-2.236	0.100
457.300	-21.682	0.100
457.400	6.480	0.100
457.500	-8.286	0.100
457.600	-3.815	0.100
457.700	-3.978	0.100
457.800	-16.298	0.100
457.900	7.235	0.100
458.000	-8.556	0.100
458.100	-6.578	0.100
458.200	-2.662	0.100
458.300	-7.411	0.100
458.400	-6.657	0.100
458.500	-9.158	0.100
458.600	-0.144	0.100
458.700	-20.603	0.100
458.800	-6.471	0.100
458.900	-8.236	0.100
459.000	-7.620	0.100
459.100	-6.665	0.100
459.200	-9.415	0.100
459.300	-8.584	0.100
459.400	-19.075	0.100
459.500	-13.545	0.100
459.600	2.775	0.100
459.700	-1.970	0.100
459.800	-9.028	0.100
459.900	-9.307	0.100
460.000	-0.115	0.100
460.100	-11.182	0.100
460.200	-3.200	0.100
460.300	-2.238	0.100
460.400	-4.352	0.100
460.500	-6.738	0.100
460.600	-2.848	0.100
460.700	6.853	0.100
460.800	-24.621	0.100
460.900	-4.507	0.100
461.000	-15.944	0.100
461.100	0.184	0.100
461.200	0.194	0.100
461.300	12.178	0.100
461.400	-7.927	0.100
461.500	-8.981	0.100
461.600	-1.106	0.100
461.700	-5.473	0.100
461.800	-10.871	0.100
461.900	-18.106	0.100
462.000	-2.511	0.100
462.100	-14.538	0.100
462.200	-12.822	0.100
462.300	-13.968	0.100
462.400	8.302	0.100
462.500	2.440	0.100
462.600	-3.669	0.100
462.700	-8.987	0.100
462.800	3.109	0.100
462.900	-12.688	0.100
463.000	-4.882	0.100
463.100	-11.794	0.100
463.200	-11.993	0.100
463.300	2.980	0.100
463.400	1.287	0.100
463.500	-4.294	0.100
463.600	-5.346	0.100
463.700	-11.595	0.100
463.800	-2.911	0.100
463.900	-13.819	0.100
464.000	-3.289	0.100
464.100	-1.422	0.100
464.200	-4.562	0.100
464.300	2.927	0.100
464.400	-1.131	0.100
464.500	-5.962	0.100
464.600	-2.214	0.100
464.700	-3.251	0.100
464.800	6.994	0.100
464.900	1.352	0.100
465.000	-6.443	0.100
465.100	-6.446	0.100
465.200	3.462	0.100
465.300	-18.979	0.100
465.400	-6.320	0.100
465.500	8.263	0.100
465.600	-13.776	0.100
465.700	-6.872	0.100
465.800	-5.974	0.100
465.900	0.212	0.100
466.000	-8.295	0.100
466.100	3.665	0.100
466.200	3.920	0.100
466.300	-15.937	0.100
466.400	-12.660	0.100
466.500	5.511	0.100
466.600	-5.751	0.100
466.700	-6.482	0.100
466.800	0.418	0.100
466.900	-8.692	0.100
467.000	-11.122	0.100
467.100	-1.581	0.100
467.200	-2.380	0.100
467.300	-4.113	0.100
467.400	-22.543	0.100
467.500	7.089	0.100
467.600	1.607	0.100
467.700	-12.234	0.100
467.800	-3.518	0.100
467.900	-8.304	0.100
468.000	-11.818	0.100
468.100	-16.688	0.100
468.200	10.378	0.100
468.300	3.516	0.100
468.400	-7.637	0.100
468.500	-20.444	0.100
468.600	-7.249	0.100
468.700	1.766	0.100
468.800	-2.340	0.100
468.900	-6.295	0.100
469.000	-7.987	0.100
469.100	1.936	0.100
469.200	0.372	0.100
469.300	-13.401	0.100
469.400	-17.768	0.100
469.500	0.331	0.100
469.600	-2.583	0.100
469.700	-1.353	0.100
469.800	-11.059	0.100
469.900	-16.446	0.100
470.000	2.453	0.100
470.100	-8.383	0.100
470.200	-2.153	0.100
470.300	-7.626	0.100
470.400	-6.513	0.100
470.500	-7.487	0.100
470.600	0.308	0.100
470.700	-6.490	0.100
470.800	-4.017	0.100
470.900	-1.840	0.100
471.000	5.069	0.100
471.100	-2.989	0.100
471.200	-2.983	0.100
471.300	-9.384	0.100
471.400	-4.061	0.100
471.500	-9.329	0.100
471.600	-6.150	0.100
471.700	-6.597	0.100
471.800	-4.736	0.100
471.900	0.964	0.100
472.000	-11.791	0.100
472.100	-8.106	0.100
472.200	-8.327	0.100
472.300	-4.464	0.100
472.400	-4.943	0.100
472.500	-5.014	0.100
472.600	17.260	0.100
472.700	-1.717	0.100
472.800	-9.079	0.100
472.900	-8.710	0.100
473.000	-8.145	0.100
473.100	-4.138	0.100
473.200	-10.875	0.100
473.300	-15.683	0.100
473.400	-2.902	0.100
473.500	0.476	0.100
473.600	-2.953	0.100
473.700	-4.487	0.100
473.800	-6.231	0.100
473.900	-7.031	0.100
474.000	-2.106	0.100
474.100	-7.163	0.100
474.200	0.733	0.100
474.300	-5.694	0.100
474.400	-1.624	0.100
474.500	-10.580	0.100
474.600	-5.050	0.100
474.700	-5.457	0.100
474.800	-16.120	0.100
474.900	-15.723	0.100
475.000	5.434	0.100
475.100	-0.634	0.100
475.200	-10.491	0.100
475.300	-3.683	0.100
475.400	7.871	0.100
475.500	-8.260	0.100
475.600	-7.627	0.100
475.700	4.992	0.100
475.800	-3.043	0.100
475.900	-3.314	0.100
476.000	-8.334	0.100
476.100	7.207	0.100
476.200	2.187	0.100
476.300	-21.775	0.100
476.400	-9.623	0.100
476.500	-6.732	0.100
476.600	-2.560	0.100
476.700	0.993	0.100
476.800	-1.862	0.100
476.900	-0.230	0.100
477.000	0.215	0.100
477.100	-0.168	0.100
477.200	-1.386	0.100
477.300	-6.039	0.100
477.400	-5.122	0.100
477.500	-2.921	0.100
477.600	-16.173	0.100
477.700	-12.082	0.100
477.800	0.865	0.100
477.900	-12.681	0.100
478.000	4.249	0.100
478.100	-9.322	0.100
478.200	1.430	0.100
478.300	-2.533	0.100
478.400	-15.920	0.100
478.500	-10.853	0.100
478.600	-1.209	0.100
478.700	-10.038	0.100
478.800	-10.468	0.100
478.900	-5.967	0.100
479.000	-2.623	0.100
479.100	-3.702	0.100
479.200	-10.949	0.100
479.300	-7.042	0.100
479.400	-5.836	0.100
479.500	8.652	0.100
479.600	11.051	0.100
479.700	-9.635	0.100
479.800	-22.823	0.100
479.900	-13.908	0.100
480.000	-5.571	0.100
480.100	-4.807	0.100
480.200	-2.830	0.100
480.300	-11.826	0.100
480.400	2.054	0.100
480.500	-6.482	0.100
480.600	-7.353	0.100
480.700	10.684	0.100
480.800	-13.444	0.100
480.900	2.363	0.100
481.000	-6.418	0.100
481.100	1.149	0.100
481.200	-12.851	0.100
481.300	7.397	0.100
481.400	-3.973	0.100
481.500	4.475	0.100
481.600	4.467	0.100
481.700	-6.830	0.100
481.800	-4.500	0.100
481.900	2.040	0.100
482.000	6.710	0.100
482.100	-0.959	0.100
482.200	-6.917	0.100
482.300	-0.490	0.100
482.400	2.532	0.100
482.500	-2.115	0.100
482.600	0.723	0.100
482.700	8.023	0.100
482.800	-3.330	0.100
482.900	-5.466	0.100
483.000	13.214	0.100
483.100	0.384	0.100
483.200	0.830	0.100
483.300	2.050	0.100
483.400	5.678	0.100
483.500	-6.575	0.100
483.600	6.466	0.100
483.700	8.092	0.100
483.800	14.127	0.100
483.900	-0.599	0.100
484.000	7.680	0.100
484.100	8.400	0.100
484.200	7.175	0.100
484.300	3.944	0.100
484.400	-0.323	0.100
484.500	6.304	0.100
484.600	-10.586	0.100
484.700	-9.479	0.100
484.800	6.185	0.100
484.900	5.048	0.100
485.000	-4.510	0.100
485.100	-1.877	0.100
485.200	4.845	0.100
485.300	5.230	0.100
485.400	-1.429	0.100
485.500	-0.267	0.100
485.600	-14.604	0.100
485.700	11.135	0.100
485.800	-9.348	0.100
485.900	16.946	0.100
486.000	-13.297	0.100
486.100	-9.084	0.100
486.200	15.381	0.100
486.300	1.811	0.100
486.400	-2.086	0.100
486.500	-23.945	0.100
486.600	12.712	0.100
486.700	10.215	0.100
486.800	16.008	0.100
486.900	-9.016	0.100
487.000	-5.328	0.100
487.100	11.262	0.100
487.200	12.281	0.100
487.300	1.075	0.100
487.400	-4.298	0.100
487.500	-8.229	0.100
487.600	4.167	0.100
487.700	1.700	0.100
487.800	0.869	0.100
487.900	8.962	0.100
488.000	-5.861	0.100
488.100	0.851	0.100
488.200	5.084	0.100
488.300	-4.579	0.100
488.400	-4.275	0.100
488.500	-0.521	0.100
488.600	16.129	0.100
488.700	6.913	0.100
488.800	5.911	0.100
488.900	7.581	0.100
489.000	-13.025	0.100
489.100	11.359	0.100
489.200	0.721	0.100
489.300	-0.161	0.100
489.400	-3.053	0.100
489.500	2.907	0.100
489.600	2.881	0.100
489.700	8.908	0.100
489.800	3.999	0.100
489.900	-9.696	0.100
490.000	13.863	0.100
490.100	8.951	0.100
490.200	-0.815	0.100
490.300	3.675	0.100
490.400	1.408	0.100
490.500	-0.632	0.100
490.600	0.461	0.100
490.700	11.482	0.100
490.800	9.370	0.100
490.900	5.694	0.100
491.000	0.293	0.100
491.100	6.247	0.100
491.200	-4.622	0.100
491.300	3.364	0.100
491.400	12.238	0.100
491.500	15.648	0.100
491.600	-1.856	0.100
491.700	12.522	0.100
491.800	8.851	0.100
491.900	-2.427	0.100
492.000	6.689	0.100
492.100	18.548	0.100
492.200	-6.194	0.100
492.300	1.560	0.100
492.400	18.586	0.100
492.500	8.703	0.100
492.600	2.805	0.100
492.700	13.489	0.100
492.800	2.195	0.100
492.900	9.520	0.100
493.000	16.634	0.100
493.100	0.290	0.100
493.200	3.020	0.100
493.300	-0.812	0.100
493.400	6.044	0.100
493.500	1.902	0.100
493.600	-12.470	0.100
493.700	8.942	0.100
493.800	12.549	0.100
493.900	1.004	0.100
494.000	6.021	0.100
494.100	4.236	0.100
494.200	6.009	0.100
494.300	10.976	0.100
494.400	18.164	0.100
494.500	-2.306	0.100
494.600	14.957	0.100
494.700	8.288	0.100
494.800	9.675	0.100
494.900	9.873	0.100
495.000	-4.440	0.100
495.100	3.381	0.100
495.200	3.228	0.100
495.300	-0.691	0.100
495.400	4.318	0.100
495.500	9.286	0.100
495.600	4.539	0.100
495.700	5.063	0.100
495.800	10.842	0.100
495.900	14.827	0.100
496.000	12.834	0.100
496.100	10.632	0.100
496.200	0.748	0.100
496.300	8.779	0.100
496.400	0.915	0.100
496.500	0.041	0.100
496.600	-2.296	0.100
496.700	11.544	0.100
496.800	2.813	0.100
496.900	13.413	0.100
497.000	8.606	0.100
497.100	5.499	0.100
497.200	8.515	0.100
497.300	6.870	0.100
497.400	-1.962	0.100
497.500	24.610	0.100
497.600	13.904	0.100
497.700	8.495	0.100
497.800	11.095	0.100
497.900	11.948	0.100
498.000	6.523	0.100
498.100	5.292	0.100
498.200	-14.005	0.100
498.300	15.224	0.100
498.400	11.697	0.100
498.500	-0.766	0.100
498.600	4.058	0.100
498.700	12.412	0.100
498.800	19.549	0.100
498.900	-2.924	0.100
499.000	10.342	0.100
499.100	10.449	0.100
499.200	-8.119	0.100
499.300	21.206	0.100
499.400	-2.645	0.100
499.500	3.811	0.100
499.600	-0.615	0.100
499.700	10.184	0.100
499.800	15.491	0.100
499.900	17.230	0.100
500.000	8.355	0.100
500.100	11.875	0.100
500.200	11.721	0.100
500.300	18.145	0.100
500.400	-5.423	0.100
500.500	7.505	0.100
500.600	4.764	0.100
500.700	17.442	0.100
500.800	14.933	0.100
500.900	-4.321	0.100
501.000	14.466	0.100
501.100	18.436	0.100
501.200	0.063	0.100
501.300	17.929	0.100
501.400	5.065	0.100
501.500	-0.348	0.100
501.600	3.507	0.100
501.700	4.122	0.100
501.800	8.764	0.100
501.900	5.017	0.100
502.000	-3.653	0.100
502.100	0.537	0.100
502.200	3.272	0.100
502.300	14.603	0.100
502.400	23.785	0.100
502.500	4.693	0.100
502.600	10.172	0.100
502.700	3.789	0.100
502.800	13.441	0.100
502.900	3.474	0.100
503.000	11.938	0.100
503.100	28.878	0.100
503.200	6.804	0.100
503.300	19.371	0.100
503.400	5.015	0.100
503.500	3.803	0.100
503.600	16.566	0.100
503.700	6.150	0.100
503.800	14.731	0.100
503.900	4.180	0.100
504.000	5.229	0.100
504.100	6.714	0.100
504.200	13.501	0.100
504.300	7.338	0.100
504.400	12.560	0.100
504.500	9.740	0.100
504.600	10.494	0.099
504.700	14.601	0.100
504.800	18.659	0.099
504.900	11.540	0.099
505.000	7.024	0.099
505.100	9.949	0.099
505.200	17.799	0.099
505.300	15.667	0.099
505.400	2.390	0.099
505.500	6.129	0.099
505.600	10.973	0.099
505.700	-11.071	0.099
505.800	9.856	0.099
505.900	20.617	0.099
506.000	12.913	0.099
506.100	5.764	0.099
506.200	15.432	0.099
506.300	5.658	0.099
506.400	11.484	0.099
506.500	13.205	0.099
506.600	27.727	0.099
506.700	17.745	0.099
506.800	14.515	0.099
506.900	7.345	0.099
507.000	4.804	0.099
507.100	6.996	0.099
507.200	11.898	0.099
507.300	11.201	0.099
507.400	6.294	0.099
507.500	11.073	0.099
507.600	21.979	0.099
507.700	15.589	0.099
507.800	15.495	0.099
507.900	7.312	0.099
508.000	3.773	0.099
508.100	6.627	0.099
508.200	5.060	0.099
508.300	15.204	0.099
508.400	18.751	0.099
508.500	19.075	0.099
508.600	7.806	0.099
508.700	19.646	0.099
508.800	14.841	0.099
508.900	16.887	0.099
509.000	16.090	0.099
509.100	11.377	0.099
509.200	3.814	0.099
509.300	24.667	0.099
509.400	17.843	0.099
509.500	5.632	0.099
509.600	7.369	0.099
509.700	4.123	0.099
509.800	6.244	0.099
509.900	14.344	0.099
510.000	13.672	0.099
510.100	7.506	0.099
510.200	22.445	0.099
510.300	11.216	0.099
510.400	15.433	0.099
510.500	22.984	0.099
510.600	11.211	0.099
510.700	13.470	0.099
510.800	-5.191	0.099
510.900	5.725	0.099
511.000	18.403	0.099
511.100	8.469	0.099
511.200	13.576	0.099
511.300	12.904	0.099
511.400	15.946	0.099
511.500	10.281	0.099
511.600	10.622	0.099
511.700	7.089	0.099
511.800	8.526	0.099
511.900	-1.301	0.099
512.000	12.279	0.099
512.100	18.471	0.099
512.200	12.680	0.099
512.300	13.003	0.099
512.400	16.922	0.099
512.500	9.106	0.099
512.600	13.129	0.099
512.700	-4.749	0.099
512.800	6.873	0.099
512.900	22.545	0.099
513.000	20.482	0.099
513.100	10.237	0.099
513.200	24.063	0.099
513.300	3.150	0.099
513.400	12.814	0.099
513.500	8.946	0.099
513.600	14.680	0.099
513.700	6.367	0.099
513.800	7.112	0.099
513.900	7.912	0.099
514.000	24.574	0.099
514.100	10.635	0.099
514.200	20.184	0.099
514.300	2.791	0.099
514.400	8.774	0.099
514.500	5.983	0.099
514.600	26.568	0.099
514.700	23.564	0.099
514.800	22.537	0.099
514.900	11.586	0.099
515.000	-2.487	0.099
515.100	22.676	0.099
515.200	5.236	0.099
515.300	11.104	0.099
515.400	7.957	0.099
515.500	19.303	0.099
515.600	8.062	0.099
515.700	5.632	0.099
515.800	19.022	0.099
515.900	17.953	0.099
516.000	9.118	0.099
516.100	18.519	0.099
516.200	20.702	0.099
516.300	14.895	0.099
516.400	13.250	0.099
516.500	8.159	0.099
516.600	15.821	0.099
516.700	12.652	0.099
516.800	13.874	0.099
516.900	18.075	0.099
517.000	5.093	0.099
517.100	19.183	0.099
517.200	17.131	0.099
517.300	26.491	0.099
517.400	5.420	0.099
517.500	2.918	0.099
517.600	20.252	0.099
517.700	8.828	0.099
517.800	18.184	0.099
517.900	4.231	0.099
518.000	16.814	0.099
518.100	8.828	0.099
518.200	22.113	0.099
518.300	18.282	0.099
518.400	12.727	0.099
518.500	11.130	0.099
518.600	20.197	0.099
518.700	23.900	0.099
518.800	10.887	0.099
518.900	23.127	0.099
519.000	15.518	0.099
519.100	11.013	0.099
519.200	18.559	0.099
519.300	3.440	0.099
519.400	22.226	0.099
519.500	19.279	0.099
519.600	10.995	0.099
519.700	0.895	0.099
519.800	17.391	0.099
519.900	22.247	0.099
520.000	20.312	0.099
520.100	24.549	0.099
520.200	-2.047	0.099
520.300	16.990	0.099
520.400	17.131	0.099
520.500	13.355	0.099
520.600	14.670	0.099
520.700	10.980	0.099
520.800	27.595	0.099
520.900	8.296	0.099
521.000	11.542	0.099
521.100	14.125	0.099
521.200	8.052	0.100
521.300	3.143	0.100
521.400	11.913	0.100
521.500	7.471	0.100
521.600	20.595	0.100
521.700	23.522	0.100
521.800	29.960	0.100
521.900	13.735	0.100
522.000	19.899	0.100
522.100	11.972	0.100
522.200	24.238	0.100
522.300	27.219	0.100
522.400	26.185	0.100
522.500	11.652	0.100
522.600	12.262	0.100
522.700	19.124	0.100
522.800	16.220	0.100
522.900	18.093	0.100
523.000	14.919	0.100
523.100	20.570	0.100
523.200	2.714	0.100
523.300	3.970	0.100
523.400	18.157	0.100
523.500	23.749	0.100
523.600	7.162	0.100
523.700	20.367	0.100
523.800	19.653	0.100
523.900	17.989	0.100
524.000	5.165	0.100
524.100	22.758	0.100
524.200	16.597	0.100
524.300	18.054	0.100
524.400	18.130	0.100
524.500	11.795	0.100
524.600	15.014	0.100
524.700	18.953	0.100
524.800	17.804	0.100
524.900	16.975	0.100
525.000	7.186	0.100
525.100	11.854	0.100
525.200	24.319	0.100
525.300	20.311	0.100
525.400	13.691	0.100
525.500	14.257	0.100
525.600	4.144	0.100
525.700	15.603	0.100
525.800	17.806	0.100
525.900	21.868	0.100
526.000	10.607	0.100
526.100	15.610	0.100
526.200	3.868	0.100
526.300	27.297	0.100
526.400	20.338	0.100
526.500	1.287	0.100
526.600	15.454	0.100
526.700	11.350	0.100
526.800	19.441	0.100
526.900	9.303	0.100
527.000	28.823	0.100
527.100	8.370	0.100
527.200	14.146	0.100
527.300	18.155	0.100
527.400	24.182	0.100
527.500	15.298	0.100
527.600	17.040	0.100
527.700	15.215	0.100
527.800	11.297	0.100
527.900	9.251	0.100
528.000	22.455	0.100
528.100	15.691	0.100
528.200	18.306	0.100
528.300	9.603	0.100
528.400	18.924	0.100
528.500	0.441	0.100
528.600	15.313	0.100
528.700	14.076	0.100
528.800	20.144	0.100
528.900	11.704	0.100
529.000	5.027	0.100
529.100	14.223	0.100
529.200	14.313	0.100
529.300	17.570	0.100
529.400	13.011	0.100
529.500	12.507	0.100
529.600	14.255	0.100
529.700	24.378	0.100
529.800	7.359	0.100
529.900	19.726	0.100
530.000	18.118	0.100
530.100	7.191	0.100
530.200	17.899	0.100
530.300	20.466	0.100
530.400	11.819	0.100
530.500	20.182	0.100
530.600	15.036	0.100
530.700	12.225	0.100
530.800	14.910	0.100
530.900	24.547	0.100
531.000	17.634	0.100
531.100	14.409	0.100
531.200	13.265	0.100
531.300	5.339	0.100
531.400	21.156	0.100
531.500	12.865	0.100
531.600	14.924	0.100
531.700	11.614	0.100
531.800	24.948	0.100
531.900	16.705	0.100
532.000	-0.518	0.100
532.100	19.701	0.100
532.200	20.684	0.100
532.300	8.061	0.100
532.400	7.461	0.100
532.500	4.556	0.100
532.600	14.498	0.100
532.700	24.531	0.100
532.800	21.379	0.100
532.900	15.110	0.100
533.000	12.331	0.100
533.100	27.328	0.100
533.200	14.708	0.100
533.300	13.251	0.100
533.400	7.855	0.100
533.500	19.086	0.100
533.600	12.049	0.100
533.700	21.863	0.100
533.800	5.469	0.100
533.900	19.217	0.100
534.000	19.242	0.100
534.100	17.140	0.100
534.200	7.968	0.100
534.300	24.520	0.100
534.400	16.928	0.100
534.500	26.756	0.100
534.600	17.450	0.100
534.700	17.820	0.100
534.800	17.684	0.100
534.900	0.775	0.100
535.000	16.004	0.100
535.100	18.877	0.100
535.200	12.893	0.100
535.300	14.446	0.100
535.400	17.457	0.100
535.500	25.916	0.100
535.600	-6.778	0.100
535.700	21.616	0.100
535.800	15.158	0.100
535.900	19.394	0.100
536.000	8.793	0.100
536.100	15.788	0.100
536.200	16.759	0.100
536.300	22.384	0.100
536.400	3.438	0.100
536.500	27.478	0.100
536.600	17.701	0.100
536.700	7.779	0.100
536.800	10.147	0.100
536.900	27.561	0.100
537.000	4.685	0.100
537.100	14.024	0.100
537.200	19.293	0.100
537.300	15.569	0.100
537.400	9.212	0.100
537.500	7.226	0.100
537.600	13.709	0.100
537.700	24.226	0.100
537.800	15.011	0.100
537.900	21.541	0.100
538.000	10.334	0.100
538.100	15.130	0.100
538.200	10.941	0.100
538.300	10.472	0.100
538.400	22.486	0.100
538.500	22.203	0.100
538.600	18.631	0.100
538.700	30.442	0.100
538.800	16.576	0.100
538.900	6.541	0.100
539.000	9.810	0.100
539.100	12.453	0.100
539.200	15.456	0.100
539.300	5.169	0.100
539.400	18.563	0.100
539.500	16.799	0.100
539.600	16.040	0.100
539.700	13.036	0.100
539.800	8.575	0.100
539.900	10.489	0.100
540.000	15.738	0.100
540.100	22.901	0.100
540.200	17.881	0.100
540.300	-0.621	0.100
540.400	9.282	0.100
540.500	28.043	0.100
540.600	27.392	0.100
540.700	21.588	0.100
540.800	11.009	0.100
540.900	6.370	0.100
541.000	21.579	0.100
541.100	19.271	0.100
541.200	27.772	0.100
541.300	17.433	0.100
541.400	24.365	0.100
541.500	8.634	0.100
541.600	20.297	0.100
541.700	13.019	0.100
541.800	20.287	0.100
541.900	17.308	0.100
542.000	22.640	0.100
542.100	2.473	0.100
542.200	11.676	0.100
542.300	-0.357	0.100
542.400	16.805	0.100
542.500	8.578	0.100
542.600	14.509	0.100
542.700	1.196	0.100
542.800	11.334	0.100
542.900	-0.696	0.100
543.000	28.133	0.100
543.100	17.342	0.100
543.200	10.072	0.100
543.300	18.692	0.100
543.400	2.409	0.100
543.500	10.223	0.100
543.600	6.224	0.100
543.700	18.192	0.100
543.800	12.351	0.100
543.900	9.972	0.100
544.000	12.314	0.100
544.100	18.458	0.100
544.200	13.961	0.100
544.300	-2.480	0.100
544.400	12.020	0.100
544.500	20.371	0.100
544.600	11.740	0.100
544.700	6.200	0.100
544.800	10.113	0.100
544.900	12.805	0.100
545.000	2.379	0.100
545.100	18.443	0.100
545.200	12.710	0.100
545.300	7.642	0.100
545.400	15.762	0.100
545.500	6.313	0.100
545.600	3.931	0.100
545.700	9.428	0.100
545.800	7.131	0.100
545.900	8.073	0.100
546.000	6.974	0.100
546.100	5.545	0.100
546.200	2.540	0.100
546.300	6.203	0.100
546.400	10.848	0.100
546.500	18.660	0.100
546.600	9.736	0.100
546.700	8.633	0.100
546.800	4.365	0.100
546.900	-2.131	0.100
547.000	5.904	0.100
547.100	13.427	0.100
547.200	8.154	0.100
547.300	18.174	0.100
547.400	5.276	0.100
547.500	7.447	0.100
547.600	11.883	0.100
547.700	18.248	0.100
547.800	3.934	0.100
547.900	3.060	0.100
548.000	1.972	0.100
548.100	9.236	0.100
548.200	11.902	0.100
548.300	19.637	0.100
548.400	6.463	0.100
548.500	-8.328	0.100
548.600	16.173	0.100
548.700	9.012	0.100
548.800	6.907	0.100
548.900	23.100	0.100
549.000	17.299	0.100
549.100	0.600	0.100
549.200	11.123	0.100
549.300	6.976	0.100
549.400	3.438	0.100
549.500	4.308	0.100
549.600	1.681	0.100
549.700	16.380	0.100
549.800	12.617	0.100
549.900	8.721	0.100
550.000	6.400	0.100
550.100	-3.190	0.100
550.200	7.802	0.100
550.300	7.731	0.100
550.400	-4.256	0.100
550.500	20.417	0.100
550.600	8.405	0.100
550.700	12.744	0.100
550.800	-0.799	0.100
550.900	10.671	0.100
551.000	-0.178	0.100
551.100	11.809	0.100
551.200	5.286	0.100
551.300	17.942	0.100
551.400	7.133	0.100
551.500	8.815	0.100
551.600	7.239	0.100
551.700	2.724	0.100
551.800	6.124	0.100
551.900	-8.792	0.100
552.000	19.291	0.100
552.100	4.588	0.100
552.200	9.471	0.100
552.300	-5.605	0.100
552.400	0.038	0.100
552.500	13.956	0.100
552.600	14.831	0.100
552.700	4.868	0.100
552.800	9.986	0.100
552.900	2.249	0.100
553.000	8.619	0.100
553.100	12.764	0.100
553.200	4.414	0.100
553.300	-8.812	0.100
553.400	18.379	0.100
553.500	19.017	0.100
553.600	3.034	0.100
553.700	-2.077	0.100
553.800	2.908	0.100
553.900	12.465	0.100
554.000	10.454	0.100
554.100	10.796	0.100
554.200	5.889	0.100
554.300	5.933	0.100
554.400	0.900	0.100
554.500	15.760	0.100
554.600	-13.271	0.100
554.700	1.942	0.100
554.800	2.603	0.100
554.900	10.457	0.100
555.000	4.892	0.100
555.100	-0.376	0.100
555.200	11.698	0.100
555.300	14.460	0.100
555.400	2.691	0.100
555.500	4.017	0.100
555.600	7.464	0.100
555.700	13.433	0.100
555.800	10.785	0.100
555.900	5.447	0.100
556.000	-9.941	0.100
556.100	11.862	0.100
556.200	2.857	0.100
556.300	-6.756	0.100
556.400	-5.334	0.100
556.500	17.553	0.100
556.600	-2.009	0.100
556.700	14.997	0.100
556.800	9.115	0.100
556.900	5.058	0.100
557.000	22.742	0.100
557.100	-7.675	0.100
557.200	1.003	0.100
557.300	1.223	0.100
557.400	5.822	0.100
557.500	5.696	0.100
557.600	3.538	0.100
557.700	1.404	0.100
557.800	9.700	0.100
557.900	-1.852	0.100
558.000	13.016	0.100
558.100	19.744	0.100
558.200	-1.443	0.100
558.300	3.591	0.100
558.400	5.312	0.100
558.500	8.607	0.100
558.600	8.813	0.100
558.700	3.693	0.100
558.800	14.886	0.100
558.900	6.984	0.100
559.000	-14.846	0.100
559.100	1.970	0.100
559.200	9.596	0.100
559.300	0.016	0.100
559.400	7.802	0.100
559.500	3.493	0.100
559.600	5.821	0.100
559.700	3.351	0.100
559.800	0.405	0.100
559.900	-19.212	0.100
560.000	16.130	0.100
560.100	-0.790	0.100
560.200	1.074	0.100
560.300	-3.768	0.100
560.400	7.805	0.099
560.500	2.992	0.099
560.600	1.623	0.099
560.700	-0.910	0.099
560.800	2.697	0.099
560.900	10.467	0.099
561.000	8.988	0.099
561.100	0.058	0.099
561.200	5.120	0.099
561.300	6.365	0.099
561.400	5.100	0.099
561.500	11.932	0.099
561.600	-0.960	0.099
561.700	-5.950	0.099
561.800	11.841	0.099
561.900	-0.076	0.099
562.000	-11.730	0.099
562.100	1.897	0.099
562.200	6.716	0.099
562.300	6.006	0.099
562.400	4.138	0.099
562.500	3.224	0.099
562.600	-1.598	0.099
562.700	-1.619	0.099
562.800	7.996	0.099
562.900	1.734	0.099
563.000	-0.202	0.099
563.100	0.581	0.099
563.200	-6.087	0.099
563.300	8.374	0.099
563.400	0.051	0.099
563.500	2.894	0.099
563.600	-9.073	0.099
563.700	2.738	0.099
563.800	-5.900	0.099
563.900	3.797	0.099
564.000	12.669	0.099
564.100	10.039	0.099
564.200	9.440	0.099
564.300	1.445	0.099
564.400	6.330	0.099
564.500	-1.752	0.099
564.600	13.776	0.099
564.700	-8.585	0.099
564.800	-2.669	0.099
564.900	3.932	0.099
565.000	-2.018	0.099
565.100	6.904	0.099
565.200	8.026	0.099
565.300	10.765	0.099
565.400	-1.560	0.099
565.500	-9.187	0.099
565.600	1.718	0.099
565.700	-10.783	0.099
565.800	5.753	0.099
565.900	9.877	0.099
566.000	-6.856	0.099
566.100	0.174	0.099
566.200	11.396	0.099
566.300	-11.381	0.099
566.400	-4.605	0.099
566.500	1.353	0.099
566.600	-11.179	0.099
566.700	5.600	0.099
566.800	2.131	0.099
566.900	-6.392	0.099
567.000	2.270	0.099
567.100	-1.425	0.099
567.200	-14.315	0.099
567.300	-2.127	0.099
567.400	3.370	0.099
567.500	-3.806	0.099
567.600	-5.110	0.099
567.700	-6.466	0.099
567.800	-2.155	0.099
567.900	7.246	0.099
568.000	12.344	0.099
568.100	4.278	0.099
568.200	0.786	0.099
568.300	-12.754	0.099
568.400	9.445	0.099
568.500	-11.374	0.099
568.600	3.136	0.099
568.700	9.106	0.099
568.800	-0.785	0.099
568.900	-4.375	0.099
569.000	7.044	0.099
569.100	-6.037	0.099
569.200	-11.161	0.099
569.300	-7.813	0.099
569.400	13.612	0.099
569.500	-10.608	0.099
569.600	-1.171	0.099
569.700	8.357	0.099
569.800	-3.891	0.099
569.900	9.446	0.099
570.000	10.386	0.099
570.100	-6.903	0.099
570.200	-8.812	0.099
570.300	2.316	0.099
570.400	-4.015	0.099
570.500	-4.409	0.099
570.600	-0.924	0.099
570.700	0.684	0.099
570.800	-12.063	0.099
570.900	3.196	0.099
571.000	-1.229	0.099
571.100	-6.688	0.099
571.200	-6.414	0.099
571.300	-2.270	0.099
571.400	2.963	0.099
571.500	-8.445	0.099
571.600	-1.705	0.099
571.700	6.620	0.099
571.800	-5.827	0.099
571.900	1.344	0.099
572.000	-5.331	0.099
572.100	1.357	0.099
572.200	-1.012	0.099
572.300	-7.742	0.099
572.400	-6.320	0.099
572.500	-7.565	0.099
572.600	4.281	0.099
572.700	2.936	0.099
572.800	-14.519	0.099
572.900	-12.103	0.099
573.000	-3.202	0.099
573.100	-3.241	0.099
573.200	-0.494	0.099
573.300	0.464	0.099
573.400	8.390	0.099
573.500	-5.445	0.099
573.600	-7.104	0.099
573.700	-1.416	0.099
573.800	5.528	0.099
573.900	-14.898	0.099
574.000	4.494	0.099
574.100	-2.238	0.099
574.200	-4.656	0.099
574.300	3.755	0.099
574.400	-8.924	0.099
574.500	0.329	0.099
574.600	1.251	0.099
574.700	-6.287	0.099
574.800	-3.253	0.099
574.900	-4.477	0.099
575.000	-4.286	0.099
575.100	-8.267	0.099
575.200	-2.721	0.099
575.300	-6.423	0.099
575.400	0.064	0.099
575.500	1.828	0.099
575.600	-0.833	0.099
575.700	-10.840	0.099
575.800	-7.082	0.099
575.900	1.001	0.099
576.000	8.139	0.099
576.100	-9.593	0.099
576.200	-9.449	0.099
576.300	-7.658	0.099
576.400	-16.113	0.099
576.500	-5.596	0.099
576.600	-4.408	0.099
576.700	-4.316	0.099
576.800	-4.852	0.099
576.900	-9.861	0.099
577.000	-2.729	0.099
577.100	2.734	0.099
577.200	-4.149	0.099
577.300	-10.200	0.099
577.400	-5.649	0.099
577.500	8.446	0.100
577.600	-9.469	0.100
577.700	-6.062	0.100
577.800	-14.452	0.100
577.900	-4.889	0.100
578.000	3.836	0.100
578.100	-0.611	0.100
578.200	-2.391	0.100
578.300	-0.678	0.100
578.400	2.212	0.100
578.500	-1.704	0.100
578.600	-1.149	0.100
578.700	-15.054	0.100
578.800	-17.092	0.100
578.900	-2.405	0.100
579.000	-7.187	0.100
579.100	-12.615	0.100
579.200	3.384	0.100
579.300	-5.412	0.100
579.400	-11.191	0.100
579.500	-1.869	0.100
579.600	7.737	0.100
579.700	-6.126	0.100
579.800	-2.685	0.100
579.900	-11.670	0.100
580.000	-20.093	0.100
580.100	9.341	0.100
580.200	9.411	0.100
580.300	-14.354	0.100
580.400	-2.627	0.100
580.500	4.527	0.100
580.600	-3.456	0.100
580.700	-8.514	0.100
580.800	6.786	0.100
580.900	4.416	0.100
581.000	2.152	0.100
581.100	5.130	0.100
581.200	-9.546	0.100
581.300	-10.685	0.100
581.400	-14.277	0.100
581.500	-19.970	0.100
581.600	-0.293	0.100
581.700	-6.359	0.100
581.800	-2.792	0.100
581.900	4.656	0.100
582.000	-8.581	0.100
582.100	-3.086	0.100
582.200	-1.946	0.100
582.300	-3.525	0.100
582.400	-2.624	0.100
582.500	-6.302	0.100
582.600	0.430	0.100
582.700	0.281	0.100
582.800	-8.234	0.100
582.900	-5.028	0.100
583.000	-6.099	0.100
583.100	-6.899	0.100
583.200	-5.309	0.100
583.300	-6.706	0.100
583.400	-12.330	0.100
583.500	-2.196	0.100
583.600	4.553	0.100
583.700	2.517	0.100
583.800	0.545	0.100
583.900	-3.950	0.100
584.000	2.615	0.100
584.100	-5.676	0.100
584.200	-18.649	0.100
584.300	-2.266	0.100
584.400	-2.174	0.100
584.500	-4.735	0.100
584.600	-7.193	0.100
584.700	-7.244	0.100
584.800	-9.919	0.100
584.900	-1.217	0.100
585.000	-7.087	0.100
585.100	3.179	0.100
585.200	-4.680	0.100
585.300	-4.673	0.100
585.400	-8.423	0.100
585.500	-6.812	0.100
585.600	-10.113	0.100
585.700	-14.120	0.100
585.800	1.593	0.100
585.900	-3.144	0.100
586.000	-5.627	0.100
586.100	-5.522	0.100
586.200	-3.101	0.100
586.300	-12.992	0.100
586.400	5.105	0.100
586.500	-9.400	0.100
586.600	-3.882	0.100
586.700	0.681	0.100
586.800	-4.417	0.100
586.900	-13.094	0.100
587.000	0.264	0.100
587.100	-12.463	0.100
587.200	-19.391	0.100
587.300	-14.707	0.100
587.400	8.953	0.100
587.500	1.159	0.100
587.600	-11.921	0.100
587.700	-12.609	0.100
587.800	-10.444	0.100
587.900	-8.936	0.100
588.000	-13.940	0.100
588.100	-1.555	0.100
588.200	5.789	0.100
588.300	-10.532	0.100
588.400	-11.377	0.100
588.500	-14.459	0.100
588.600	-26.354	0.100
588.700	12.472	0.100
588.800	-1.049	0.100
588.900	-6.235	0.100
589.000	-2.535	0.100
589.100	-3.828	0.100
589.200	0.002	0.100
589.300	-3.354	0.100
589.400	-21.222	0.100
589.500	14.115	0.100
589.600	0.347	0.100
589.700	-10.720	0.100
589.800	-16.933	0.100
589.900	-9.675	0.100
590.000	9.794	0.100
590.100	-8.401	0.100
590.200	6.170	0.100
590.300	-4.131	0.100
590.400	-19.545	0.100
590.500	-12.003	0.100
590.600	-6.796	0.100
590.700	-11.476	0.100
590.800	0.862	0.100
590.900	-12.353	0.100
591.000	-2.231	0.100
591.100	-2.782	0.100
591.200	-1.109	0.100
591.300	4.932	0.100
591.400	-8.595	0.100
591.500	-2.715	0.100
591.600	-14.513	0.100
591.700	-0.648	0.100
591.800	-19.722	0.100
591.900	-10.050	0.100
592.000	1.876	0.100
592.100	-14.882	0.100
592.200	2.302	0.100
592.300	5.250	0.100
592.400	-1.409	0.100
592.500	0.291	0.100
592.600	-12.120	0.100
592.700	3.845	0.100
592.800	2.168	0.100
592.900	-10.347	0.100
593.000	9.061	0.100
593.100	9.017	0.100
593.200	-2.703	0.100
593.300	-10.177	0.100
593.400	-2.547	0.100
593.500	-5.644	0.100
593.600	-1.570	0.100
593.700	-2.910	0.100
593.800	-1.444	0.100
593.900	-13.035	0.100
594.000	-2.610	0.100
594.100	-6.376	0.100
594.200	-9.683	0.100
594.300	0.517	0.100
594.400	-2.857	0.100
594.500	-22.209	0.100
594.600	-2.271	0.100
594.700	-22.759	0.100
594.800	-9.957	0.100
594.900	-5.232	0.100
595.000	5.828	0.100
595.100	-13.151	0.100
595.200	-25.335	0.100
595.300	1.771	0.100
595.400	2.628	0.100
595.500	-5.404	0.100
595.600	-0.960	0.100
595.700	-0.008	0.100
595.800	-3.594	0.100
595.900	-5.603	0.100
596.000	4.578	0.100
596.100	-3.180	0.100
596.200	-1.371	0.100
596.300	2.463	0.100
596.400	1.582	0.100
596.500	-24.586	0.100
596.600	-13.955	0.100
596.700	-11.084	0.100
596.800	-4.350	0.100
596.900	-14.739	0.100
597.000	-0.727	0.100
597.100	-8.120	0.100
597.200	4.801	0.100
597.300	1.234	0.100
597.400	-12.230	0.100
597.500	0.666	0.100
597.600	-7.402	0.100
597.700	3.457	0.100
597.800	-0.966	0.100
597.900	-9.509	0.100
598.000	-26.106	0.100
598.100	-8.292	0.100
598.200	-7.082	0.100
598.300	8.850	0.100
598.400	-11.432	0.100
598.500	-1.632	0.100
598.600	-5.495	0.100
598.700	5.154	0.100
598.800	-9.732	0.100
598.900	-3.765	0.100
599.000	-7.660	0.100
599.100	-5.630	0.100
599.200	-5.474	0.100
599.300	10.821	0.100
599.400	-2.320	0.100
599.500	-30.171	0.100
599.600	-4.982	0.100
599.700	1.097	0.100
599.800	-5.052	0.100
599.900	-11.261	0.100
600.000	-8.047	0.100
600.100	-4.087	0.100
600.200	-19.036	0.100
600.300	1.769	0.100
600.400	-8.675	0.100
600.500	5.963	0.100
600.600	-17.852	0.100
600.700	3.272	0.100
600.800	-6.633	0.100
600.900	-6.647	0.100
601.000	-6.940	0.100
601.100	-1.864	0.100
601.200	-10.015	0.100
601.300	-4.423	0.100
601.400	-4.378	0.100
601.500	-15.675	0.100
601.600	-15.111	0.100
601.700	-6.002	0.100
601.800	-3.427	0.100
601.900	5.762	0.100
602.000	-10.811	0.100
602.100	-10.242	0.100
602.200	-4.099	0.100
602.300	-7.230	0.100
602.400	-0.124	0.100
602.500	0.860	0.100
602.600	-12.223	0.100
602.700	-9.825	0.100
602.800	-4.418	0.100
602.900	-13.857	0.100
603.000	-6.435	0.100
603.100	-4.910	0.100
603.200	-7.412	0.100
603.300	-3.172	0.100
603.400	4.862	0.100
603.500	-5.033	0.100
603.600	-15.862	0.100
603.700	-1.690	0.100
603.800	-1.356	0.100
603.900	-2.855	0.100
604.000	3.050	0.100
604.100	-16.347	0.100
604.200	-9.650	0.100
604.300	-23.426	0.100
604.400	-4.429	0.100
604.500	0.369	0.100
604.600	-5.259	0.100
604.700	-14.926	0.100
604.800	-3.544	0.100
604.900	5.070	0.100
605.000	-2.547	0.100
605.100	-14.243	0.100
605.200	-1.064	0.100
605.300	0.925	0.100
605.400	5.178	0.100
605.500	-2.682	0.100
605.600	4.010	0.100
605.700	5.081	0.100
605.800	-8.947	0.100
605.900	-13.584	0.100
606.000	4.062	0.100
606.100	-14.798	0.100
606.200	-21.574	0.100
606.300	-3.539	0.100
606.400	-8.672	0.100
606.500	-5.088	0.100
606.600	-4.195	0.100
606.700	-5.391	0.100
606.800	-11.951	0.100
606.900	-9.144	0.100
607.000	-11.134	0.100
607.100	-2.987	0.100
607.200	-9.644	0.100
607.300	-0.616	0.100
607.400	-4.706	0.100
607.500	-5.156	0.100
607.600	-10.184	0.100
607.700	2.927	0.100
607.800	-3.994	0.100
607.900	6.247	0.100
608.000	-10.740	0.100
608.100	-13.682	0.100
608.200	-11.543	0.100
608.300	-14.741	0.100
608.400	-2.835	0.100
608.500	-14.181	0.100
608.600	-1.395	0.100
608.700	-10.130	0.100
608.800	-3.758	0.100
608.900	-8.458	0.100
609.000	-0.012	0.100
609.100	0.738	0.100
609.200	-7.244	0.100
609.300	-5.586	0.100
609.400	-5.724	0.100
609.500	0.528	0.100
609.600	-15.700	0.100
609.700	-1.905	0.100
609.800	-13.681	0.100
609.900	-2.310	0.100
610.000	-8.160	0.100
610.100	-5.552	0.100
610.200	-4.885	0.100
610.300	2.400	0.100
610.400	-10.288	0.100
610.500	-11.180	0.100
610.600	-1.079	0.100
610.700	-12.666	0.100
610.800	3.339	0.100
610.900	1.802	0.100
611.000	-6.538	0.100
611.100	2.366	0.100
611.200	-6.059	0.100
611.300	-6.635	0.100
611.400	8.226	0.100
611.500	-9.807	0.100
611.600	-19.717	0.100
611.700	12.799	0.100
611.800	-0.121	0.100
611.900	-6.636	0.100
612.000	-4.383	0.100
612.100	-8.235	0.100
612.200	7.133	0.100
612.300	-1.708	0.100
612.400	-7.024	0.100
612.500	-9.465	0.100
612.600	-3.253	0.100
612.700	-11.388	0.100
612.800	-3.131	0.100
612.900	11.216	0.100
613.000	-7.234	0.100
613.100	0.144	0.100
613.200	-3.299	0.100
613.300	-14.903	0.100
613.400	-6.438	0.100
613.500	4.189	0.100
613.600	0.855	0.100
613.700	-0.577	0.100
613.800	-3.952	0.100
613.900	2.791	0.100
614.000	-1.056	0.100
614.100	1.080	0.100
614.200	-0.632	0.100
614.300	-13.571	0.100
614.400	3.302	0.100
614.500	-17.319	0.100
614.600	-18.959	0.100
614.700	1.485	0.100
614.800	-7.894	0.100
614.900	-6.015	0.100
615.000	-4.566	0.100
615.100	0.499	0.100
615.200	-9.636	0.100
615.300	-11.773	0.100
615.400	-7.754	0.100
615.500	-9.976	0.100
615.600	-5.175	0.100
615.700	-3.969	0.100
615.800	-0.376	0.100
615.900	-3.281	0.100
616.000	3.097	0.100
616.100	-5.550	0.100
616.200	-11.973	0.100
616.300	-10.837	0.100
616.400	-13.516	0.100
616.500	3.146	0.100
616.600	-19.435	0.100
616.700	0.208	0.100
616.800	-3.219	0.100
616.900	-8.433	0.100
617.000	-4.964	0.100
617.100	-15.477	0.100
617.200	-3.826	0.100
617.300	0.478	0.100
617.400	-0.671	0.100
617.500	-10.542	0.100
617.600	-1.847	0.100
617.700	-6.690	0.100
617.800	-0.941	0.100
617.900	-10.565	0.100
618.000	-8.774	0.100
618.100	-3.413	0.100
618.200	-9.355	0.100
618.300	1.742	0.100
618.400	-9.347	0.100
618.500	-4.204	0.100
618.600	-3.824	0.100
618.700	12.742	0.100
618.800	-10.090	0.100
618.900	-9.820	0.100
619.000	-4.273	0.100
619.100	1.184	0.100
619.200	-13.169	0.100
619.300	-7.326	0.100
619.400	-9.409	0.100
619.500	-0.276	0.100
619.600	-10.936	0.100
619.700	4.018	0.100
619.800	-18.398	0.100
619.900	-5.206	0.100
620.000	-0.468	0.100
620.100	9.515	0.100
620.200	-4.983	0.100
620.300	-23.305	0.100
620.400	-6.789	0.100
620.500	-7.209	0.100
620.600	-2.116	0.100
620.700	-3.479	0.100
620.800	8.334	0.100
620.900	-5.120	0.100
621.000	-4.254	0.100
621.100	-8.051	0.100
621.200	4.945	0.100
621.300	8.244	0.100
621.400	-11.820	0.100
621.500	-13.533	0.100
621.600	-2.686	0.100
621.700	2.278	0.100
621.800	-8.901	0.100
621.900	-21.840	0.100
622.000	-1.702	0.100
622.100	-7.798	0.100
622.200	-4.683	0.100
622.300	-19.147	0.100
622.400	1.956	0.100
622.500	-15.401	0.100
622.600	-3.357	0.100
622.700	-2.215	0.100
622.800	0.704	0.100
622.900	1.703	0.100
623.000	-0.074	0.100
623.100	-13.055	0.100
623.200	-8.213	0.100
623.300	-15.363	0.100
623.400	1.039	0.100
623.500	-1.410	0.100
623.600	1.770	0.100
623.700	6.677	0.100
623.800	-6.406	0.100
623.900	4.002	0.100
624.000	-6.737	0.100
624.100	-1.178	0.100
624.200	-9.254	0.100
624.300	-15.083	0.100
624.400	-0.252	0.100
624.500	1.941	0.100
624.600	-3.859	0.100
624.700	-1.781	0.100
624.800	-14.963	0.100
624.900	-10.881	0.100
625.000	-12.651	0.100
625.100	-7.352	0.100
625.200	-2.176	0.100
625.300	8.975	0.100
625.400	-6.273	0.100
625.500	-8.987	0.100
625.600	0.713	0.100
625.700	-7.763	0.100
625.800	-12.255	0.100
625.900	-4.096	0.100
626.000	-1.360	0.100
626.100	11.611	0.100
626.200	4.514	0.100
626.300	0.383	0.100
626.400	-7.770	0.100
626.500	4.164	0.100
626.600	3.630	0.100
626.700	-7.313	0.100
626.800	6.601	0.100
626.900	-14.357	0.100
627.000	-2.315	0.100
627.100	-6.376	0.100
627.200	0.242	0.100
627.300	-4.486	0.100
627.400	-15.577	0.100
627.500	-6.891	0.100
627.600	-1.760	0.100
627.700	-5.690	0.100
627.800	0.627	0.100
627.900	-11.022	0.100
628.000	-9.594	0.100
628.100	5.436	0.100
628.200	-8.574	0.100
628.300	-7.595	0.100
628.400	7.318	0.100
628.500	0.664	0.100
628.600	-2.161	0.100
628.700	-5.714	0.100
628.800	-11.825	0.100
628.900	-4.126	0.100
629.000	-18.409	0.100
629.100	-7.148	0.100
629.200	-1.127	0.100
629.300	-20.220	0.100
629.400	4.480	0.100
629.500	-7.693	0.100
629.600	14.135	0.100
629.700	-12.848	0.100
629.800	-11.853	0.100
629.900	-9.236	0.100
630.000	-14.431	0.100
630.100	-0.041	0.100
630.200	4.236	0.100
630.300	-8.737	0.100
630.400	3.346	0.100
630.500	-4.187	0.100
630.600	-19.122	0.100
630.700	-11.032	0.100
630.800	-6.014	0.100
630.900	-8.419	0.100
631.000	4.566	0.100
631.100	-2.921	0.100
631.200	-7.591	0.100
631.300	-2.986	0.100
631.400	-5.109	0.100
631.500	0.549	0.100
631.600	-4.423	0.100
631.700	-3.003	0.100
631.800	7.733	0.100
631.900	11.512	0.100
632.000	-6.848	0.100
632.100	13.457	0.100
632.200	-4.185	0.100
632.300	-2.857	0.100
632.400	18.073	0.100
632.500	-5.153	0.100
632.600	-18.488	0.100
632.700	1.902	0.100
632.800	-4.834	0.100
632.900	-2.007	0.100
633.000	9.279	0.100
633.100	2.893	0.100
633.200	2.858	0.100
633.300	-4.935	0.100
633.400	10.415	0.100
633.500	5.401	0.100
633.600	4.881	0.100
633.700	8.339	0.100
633.800	-2.609	0.100
633.900	0.707	0.100
634.000	11.867	0.100
634.100	1.289	0.100
634.200	-3.272	0.100
634.300	-4.982	0.100
634.400	-0.748	0.100
634.500	-6.558	0.100
634.600	-2.986	0.100
634.700	9.144	0.100
634.800	6.892	0.100
634.900	7.051	0.100
635.000	-4.697	0.100
635.100	24.029	0.100
635.200	8.833	0.100
635.300	4.972	0.100
635.400	11.034	0.100
635.500	3.290	0.100
635.600	-0.393	0.100
635.700	-9.182	0.100
635.800	11.837	0.100
635.900	5.084	0.100
636.000	5.722	0.100
636.100	3.963	0.100
636.200	-20.909	0.100
636.300	9.920	0.100
636.400	1.904	0.100
636.500	3.451	0.100
636.600	-2.876	0.100
636.700	-3.001	0.100
636.800	21.638	0.100
636.900	10.684	0.100
637.000	-1.256	0.100
637.100	-1.604	0.100
637.200	-7.290	0.100
637.300	10.174	0.100
637.400	14.854	0.100
637.500	-1.936	0.100
637.600	2.817	0.100
637.700	-0.336	0.100
637.800	-4.795	0.100
637.900	1.204	0.100
638.000	-7.274	0.100
638.100	-5.995	0.100
638.200	14.069	0.100
638.300	9.994	0.100
638.400	12.180	0.100
638.500	4.403	0.100
638.600	2.197	0.100
638.700	9.568	0.100
638.800	8.537	0.100
638.900	2.667	0.100
639.000	-1.928	0.100
639.100	2.141	0.100
639.200	3.381	0.100
639.300	4.724	0.100
639.400	-7.448	0.100
639.500	7.106	0.100
639.600	-0.217	0.100
639.700	9.520	0.100
639.800	1.389	0.100
639.900	2.223	0.100
640.000	-4.764	0.100
640.100	13.768	0.100
640.200	-5.908	0.100
640.300	14.712	0.100
640.400	4.079	0.100
640.500	8.184	0.100
640.600	1.595	0.100
640.700	-1.115	0.100
640.800	1.668	0.100
640.900	2.244	0.100
641.000	4.574	0.100
641.100	1.814	0.100
641.200	3.957	0.100
641.300	5.326	0.100
641.400	10.324	0.100
641.500	-2.657	0.100
641.600	1.971	0.100
641.700	0.444	0.100
641.800	5.646	0.100
641.900	7.491	0.100
642.000	11.292	0.100
642.100	3.993	0.100
642.200	-2.557	0.100
642.300	9.720	0.100
642.400	5.422	0.100
642.500	2.089	0.100
642.600	5.852	0.100
642.700	11.834	0.100
642.800	4.111	0.100
642.900	9.704	0.100
643.000	11.466	0.100
643.100	-11.473	0.100
643.200	15.340	0.100
643.300	7.905	0.100
643.400	17.157	0.100
643.500	0.828	0.100
643.600	13.906	0.100
643.700	6.243	0.100
643.800	7.538	0.100
643.900	-2.977	0.100
644.000	8.235	0.100
644.100	9.462	0.100
644.200	5.684	0.100
644.300	-3.817	0.100
644.400	-1.128	0.100
644.500	-0.713	0.100
644.600	10.852	0.100
644.700	8.758	0.100
644.800	3.600	0.100
644.900	5.082	0.100
645.000	-5.150	0.100
645.100	11.219	0.100
645.200	10.933	0.100
645.300	4.641	0.100
645.400	7.924	0.100
645.500	-7.447	0.100
645.600	-9.294	0.100
645.700	16.105	0.100
645.800	18.369	0.100
645.900	1.914	0.100
646.000	-3.488	0.100
646.100	13.388	0.100
646.200	0.908	0.100
646.300	1.464	0.100
646.400	17.956	0.100
646.500	13.328	0.100
646.600	-4.155	0.100
646.700	11.354	0.100
646.800	6.418	0.100
646.900	9.492	0.100
647.000	4.723	0.100
647.100	18.908	0.100
647.200	-2.353	0.100
647.300	17.612	0.100
647.400	2.208	0.100
647.500	10.587	0.100
647.600	4.105	0.100
647.700	-2.680	0.100
647.800	22.994	0.100
647.900	-6.797	0.100
648.000	5.154	0.100
648.100	11.177	0.100
648.200	6.530	0.100
648.300	8.686	0.100
648.400	10.029	0.100
648.500	6.403	0.100
648.600	5.569	0.100
648.700	4.128	0.100
648.800	16.131	0.100
648.900	15.483	0.100
649.000	5.598	0.100
649.100	15.686	0.100
649.200	-0.243	0.100
649.300	19.501	0.100
649.400	-0.965	0.100
649.500	3.394	0.100
649.600	13.682	0.100
649.700	17.898	0.100
649.800	10.916	0.100
649.900	13.134	0.100
650.000	10.996	0.100
650.100	6.272	0.100
650.200	2.308	0.100
650.300	25.500	0.100
650.400	8.139	0.100
650.500	12.580	0.100
650.600	-0.027	0.100
650.700	10.327	0.100
650.800	-3.045	0.100
650.900	23.905	0.100
651.000	5.532	0.100
651.100	1.151	0.100
651.200	16.396	0.100
651.300	-2.214	0.100
651.400	3.549	0.100
651.500	5.034	0.100
651.600	17.446	0.100
651.700	5.151	0.100
651.800	5.424	0.100
651.900	13.676	0.100
652.000	23.688	0.100
652.100	-0.369	0.100
652.200	4.218	0.100
652.300	13.484	0.100
652.400	14.365	0.100
652.500	10.718	0.100
652.600	13.521	0.100
652.700	7.584	0.100
652.800	5.430	0.100
652.900	12.210	0.100
653.000	10.776	0.100
653.100	13.454	0.100
653.200	4.503	0.100
653.300	9.803	0.100
653.400	10.498	0.100
653.500	14.556	0.100
653.600	0.926	0.100
653.700	18.769	0.100
653.800	8.287	0.100
653.900	14.876	0.100
654.000	0.051	0.100
654.100	11.886	0.100
654.200	16.178	0.100
654.300	10.835	0.100
654.400	5.785	0.100
654.500	24.519	0.100
654.600	12.004	0.100
654.700	2.229	0.100
654.800	9.263	0.100
654.900	6.458	0.100
655.000	16.661	0.100
655.100	4.400	0.100
655.200	5.085	0.100
655.300	21.585	0.100
655.400	17.282	0.100
655.500	3.334	0.100
655.600	6.522	0.100
655.700	15.697	0.100
655.800	10.991	0.100
655.900	3.089	0.100
656.000	14.076	0.100
656.100	14.066	0.100
656.200	9.272	0.100
656.300	25.564	0.100
656.400	10.282	0.100
656.500	11.575	0.100
656.600	7.056	0.100
656.700	3.317	0.100
656.800	10.089	0.100
656.900	11.520	0.100
657.000	21.512	0.100
657.100	8.800	0.100
657.200	-7.351	0.100
657.300	12.160	0.100
657.400	28.624	0.100
657.500	-5.040	0.100
657.600	17.321	0.100
657.700	20.756	0.100
657.800	0.244	0.100
657.900	13.006	0.100
658.000	11.708	0.100
658.100	3.940	0.100
658.200	21.978	0.100
658.300	19.230	0.100
658.400	8.456	0.100
658.500	9.334	0.100
658.600	11.382	0.100
658.700	20.614	0.100
658.800	17.374	0.100
658.900	8.201	0.100
659.000	16.826	0.100
659.100	2.444	0.100
659.200	21.843	0.100
659.300	7.683	0.100
659.400	3.017	0.100
659.500	20.388	0.100
659.600	17.494	0.100
659.700	13.924	0.100
659.800	9.941	0.100
659.900	6.523	0.100
660.000	21.358	0.100
660.100	19.716	0.100
660.200	12.034	0.100
660.300	3.359	0.100
660.400	16.495	0.100
660.500	10.344	0.100
660.600	-3.197	0.100
660.700	14.971	0.100
660.800	14.726	0.100
660.900	17.836	0.100
661.000	9.098	0.100
661.100	14.500	0.100
661.200	-1.325	0.100
661.300	9.428	0.100
661.400	26.162	0.100
661.500	16.763	0.100
661.600	6.615	0.100
661.700	15.972	0.100
661.800	20.618	0.100
661.900	16.775	0.100
662.000	8.497	0.100
662.100	23.526	0.100
662.200	26.118	0.100
662.300	6.262	0.100
662.400	9.731	0.100
662.500	0.435	0.100
662.600	18.977	0.100
662.700	15.971	0.100
662.800	20.966	0.100
662.900	3.054	0.100
663.000	8.523	0.100
663.100	2.563	0.100
663.200	14.423	0.100
663.300	3.050	0.100
663.400	27.702	0.100
663.500	25.656	0.100
663.600	12.068	0.100
663.700	10.641	0.100
663.800	23.424	0.100
663.900	1.665	0.100
664.000	24.128	0.100
664.100	11.363	0.100
664.200	6.458	0.100
664.300	14.786	0.100
664.400	15.436	0.100
664.500	19.877	0.100
664.600	15.667	0.100
664.700	21.061	0.100
664.800	21.159	0.100
664.900	17.554	0.100
665.000	11.609	0.100
665.100	8.548	0.100
665.200	12.132	0.100
665.300	13.182	0.100
665.400	20.780	0.100
665.500	9.481	0.100
665.600	15.851	0.100
665.700	11.842	0.100
665.800	20.660	0.100
665.900	29.364	0.100
666.000	7.532	0.100
666.100	13.654	0.100
666.200	15.796	0.100
666.300	11.687	0.100
666.400	21.702	0.100
666.500	7.837	0.100
666.600	18.907	0.100
666.700	8.061	0.100
666.800	21.180	0.100
666.900	15.038	0.100
667.000	19.930	0.100
667.100	20.995	0.100
667.200	25.570	0.100
667.300	4.320	0.100
667.400	14.727	0.100
667.500	15.318	0.100
667.600	4.601	0.100
667.700	9.600	0.100
667.800	20.857	0.100
667.900	5.473	0.100
668.000	17.499	0.100
668.100	12.744	0.100
668.200	17.254	0.100
668.300	23.494	0.100
668.400	10.171	0.100
668.500	11.182	0.100
668.600	17.716	0.100
668.700	13.285	0.100
668.800	9.057	0.100
668.900	3.878	0.100
669.000	24.665	0.100
669.100	18.846	0.100
669.200	12.475	0.100
669.300	27.041	0.100
669.400	15.463	0.100
669.500	21.099	0.100
669.600	18.379	0.100
669.700	19.408	0.100
669.800	9.694	0.100
669.900	22.455	0.100
670.000	9.680	0.100
670.100	16.815	0.100
670.200	9.604	0.100
670.300	14.508	0.100
670.400	6.015	0.100
670.500	19.588	0.100
670.600	18.447	0.100
670.700	-3.231	0.100
670.800	3.421	0.100
670.900	22.263	0.100
671.000	22.313	0.100
671.100	16.456	0.100
671.200	10.084	0.100
671.300	22.034	0.100
671.400	11.881	0.100
671.500	13.408	0.100
671.600	18.015	0.100
671.700	26.434	0.100
671.800	5.981	0.100
671.900	10.519	0.100
672.000	21.567	0.100
672.100	14.881	0.100
672.200	10.828	0.100
672.300	31.959	0.100
672.400	19.167	0.100
672.500	-4.656	0.100
672.600	8.729	0.100
672.700	23.477	0.100
672.800	23.123	0.100
672.900	2.535	0.100
673.000	27.507	0.100
673.100	11.687	0.100
673.200	10.244	0.100
673.300	13.702	0.100
673.400	16.540	0.100
673.500	16.653	0.100
673.600	10.669	0.100
673.700	22.542	0.100
673.800	12.216	0.100
673.900	18.665	0.100
674.000	2.637	0.100
674.100	18.033	0.100
674.200	9.875	0.100
674.300	7.102	0.100
674.400	11.325	0.100
674.500	18.603	0.100
674.600	11.277	0.100
674.700	19.428	0.100
674.800	18.732	0.100
674.900	15.854	0.100
675.000	5.729	0.100
675.100	25.281	0.100
675.200	6.161	0.100
675.300	14.661	0.100
675.400	15.835	0.100
675.500	7.408	0.100
675.600	16.047	0.100
675.700	15.217	0.100
675.800	17.283	0.100
675.900	29.441	0.100
676.000	18.572	0.100
676.100	6.661	0.100
676.200	14.898	0.100
676.300	18.695	0.100
676.400	17.612	0.100
676.500	11.465	0.100
676.600	21.284	0.100
676.700	1.117	0.100
676.800	5.391	0.100
676.900	23.904	0.100
677.000	23.756	0.100
677.100	10.483	0.100
677.200	30.951	0.100
677.300	14.787	0.100
677.400	9.304	0.100
677.500	13.462	0.100
677.600	16.757	0.100
677.700	13.217	0.100
677.800	20.168	0.100
677.900	18.199	0.100
678.000	12.382	0.100
678.100	6.427	0.100
678.200	14.268	0.100
678.300	25.115	0.100
678.400	27.421	0.100
678.500	20.861	0.100
678.600	14.012	0.100
678.700	16.782	0.100
678.800	14.882	0.100
678.900	27.298	0.100
679.000	17.433	0.100
679.100	21.674	0.100
679.200	20.033	0.100
679.300	5.621	0.100
679.400	18.179	0.100
679.500	15.173	0.100
679.600	21.604	0.100
679.700	14.091	0.100
679.800	18.634	0.100
679.900	10.676	0.100
680.000	18.613	0.100
680.100	17.471	0.100
680.200	11.155	0.100
680.300	1.551	0.100
680.400	8.434	0.100
680.500	23.680	0.100
680.600	21.464	0.100
680.700	18.177	0.100
680.800	9.281	0.100
680.900	24.140	0.100
681.000	8.257	0.100
681.100	22.711	0.100
681.200	18.595	0.100
681.300	15.562	0.100
681.400	19.781	0.100
681.500	16.213	0.100
681.600	15.497	0.100
681.700	6.537	0.100
681.800	19.990	0.100
681.900	15.403	0.100
682.000	6.776	0.100
682.100	25.277	0.100
682.200	8.404	0.100
682.300	26.976	0.100
682.400	12.506	0.100
682.500	9.658	0.100
682.600	9.033	0.100
682.700	5.642	0.100
682.800	6.854	0.100
682.900	20.276	0.100
683.000	3.895	0.100
683.100	14.089	0.100
683.200	8.856	0.100
683.300	19.571	0.100
683.400	8.198	0.100
683.500	18.586	0.100
683.600	5.596	0.100
683.700	14.876	0.100
683.800	22.944	0.100
683.900	22.438	0.100
684.000	15.600	0.100
684.100	14.542	0.100
684.200	4.547	0.100
684.300	20.190	0.100
684.400	6.348	0.100
684.500	3.010	0.100
684.600	22.566	0.100
684.700	21.619	0.100
684.800	13.857	0.100
684.900	17.353	0.100
685.000	13.178	0.100
685.100	19.792	0.100
685.200	23.044	0.100
685.300	14.257	0.100
685.400	1.940	0.100
685.500	13.750	0.100
685.600	16.474	0.100
685.700	9.314	0.100
685.800	12.812	0.100
685.900	18.334	0.100
686.000	15.539	0.100
686.100	-0.034	0.100
686.200	24.305	0.100
686.300	10.421	0.100
686.400	28.105	0.100
686.500	-1.530	0.100
686.600	32.242	0.100
686.700	21.407	0.100
686.800	8.897	0.100
686.900	7.792	0.100
687.000	7.005	0.100
687.100	24.835	0.100
687.200	17.307	0.100
687.300	6.356	0.100
687.400	23.016	0.100
687.500	18.706	0.100
687.600	13.647	0.100
687.700	21.676	0.100
687.800	1.568	0.100
687.900	20.144	0.100
688.000	16.161	0.100
688.100	21.094	0.100
688.200	9.515	0.100
688.300	21.711	0.100
688.400	13.407	0.100
688.500	23.675	0.100
688.600	12.721	0.100
688.700	16.900	0.100
688.800	29.002	0.100
688.900	-3.142	0.100
689.000	20.473	0.100
689.100	14.000	0.100
689.200	1.993	0.100
689.300	20.543	0.100
689.400	20.673	0.100
689.500	17.420	0.100
689.600	15.386	0.100
689.700	16.126	0.100
689.800	15.599	0.100
689.900	22.501	0.100
690.000	16.659	0.100
690.100	14.018	0.100
690.200	17.434	0.100
690.300	7.921	0.100
690.400	7.795	0.100
690.500	8.936	0.100
690.600	20.668	0.100
690.700	21.911	0.100
690.800	24.168	0.100
690.900	12.266	0.100
691.000	5.229	0.100
691.100	20.968	0.100
691.200	19.345	0.100
691.300	15.928	0.100
691.400	8.318	0.100
691.500	18.620	0.100
691.600	-1.644	0.100
691.700	-1.329	0.100
691.800	23.148	0.100
691.900	26.387	0.100
692.000	0.969	0.100
692.100	22.110	0.100
692.200	9.414	0.100
692.300	11.874	0.100
692.400	10.244	0.100
692.500	17.180	0.100
692.600	15.555	0.100
692.700	11.856	0.100
692.800	12.329	0.100
692.900	19.642	0.100
693.000	-2.195	0.100
693.100	11.757	0.100
693.200	22.815	0.100
693.300	13.273	0.100
693.400	13.867	0.100
693.500	9.565	0.100
693.600	8.349	0.100
693.700	3.381	0.100
693.800	11.844	0.100
693.900	9.777	0.100
694.000	20.988	0.100
694.100	11.080	0.100
694.200	7.443	0.100
694.300	5.339	0.100
694.400	11.938	0.100
694.500	14.239	0.100
694.600	-0.080	0.100
694.700	18.159	0.100
694.800	8.440	0.100
694.900	14.222	0.100
695.000	18.228	0.100
695.100	15.556	0.100
695.200	-3.753	0.100
695.300	2.732	0.100
695.400	8.011	0.100
695.500	23.926	0.100
695.600	12.190	0.100
695.700	7.135	0.100
695.800	8.426	0.100
695.900	-2.115	0.100
696.000	-0.769	0.100
696.100	5.126	0.100
696.200	22.081	0.100
696.300	9.227	0.100
696.400	14.154	0.100
696.500	4.373	0.100
696.600	4.378	0.100
696.700	7.410	0.100
696.800	7.358	0.100
696.900	2.818	0.100
697.000	11.977	0.100
697.100	3.985	0.100
697.200	18.097	0.100
697.300	-2.253	0.100
697.400	15.744	0.100
697.500	7.062	0.100
697.600	-5.722	0.100
697.700	8.870	0.100
697.800	14.535	0.100
697.900	12.072	0.100
698.000	-0.425	0.100
698.100	3.883	0.100
698.200	8.252	0.100
698.300	6.978	0.100
698.400	2.464	0.100
698.500	14.162	0.100
698.600	22.772	0.100
698.700	5.416	0.100
698.800	10.801	0.100
698.900	7.648	0.100
699.000	2.868	0.100
699.100	2.254	0.100
699.200	4.050	0.100
699.300	11.496	0.100
699.400	7.848	0.100
699.500	14.280	0.100
699.600	5.878	0.100
699.700	7.664	0.100
699.800	-2.733	0.100
699.900	-0.367	0.100
700.000	6.163	0.100
700.100	14.500	0.100
700.200	6.810	0.100
700.300	1.288	0.100
700.400	1.188	0.100
700.500	5.361	0.100
700.600	4.097	0.100
700.700	11.671	0.100
700.800	1.924	0.100
700.900	11.519	0.100
701.000	11.283	0.100
701.100	1.189	0.100
701.200	2.315	0.100
701.300	1.268	0.100
701.400	10.558	0.100
701.500	-3.463	0.100
701.600	8.953	0.100
701.700	-5.457	0.100
701.800	-0.895	0.100
701.900	12.766	0.100
702.000	22.174	0.100
702.100	6.676	0.100
702.200	-0.378	0.100
702.300	4.556	0.100
702.400	19.344	0.100
702.500	3.537	0.100
702.600	13.497	0.100
702.700	1.181	0.100
702.800	-3.597	0.100
702.900	8.091	0.100
703.000	-4.543	0.100
703.100	7.564	0.100
703.200	7.295	0.100
703.300	13.313	0.100
703.400	0.651	0.100
703.500	-5.729	0.100
703.600	-4.596	0.100
703.700	-9.054	0.100
703.800	-0.254	0.100
703.900	14.825	0.100
704.000	10.045	0.100
704.100	-0.758	0.100
704.200	1.218	0.100
704.300	8.343	0.100
704.400	7.075	0.100
704.500	6.426	0.100
704.600	0.082	0.100
704.700	11.488	0.100
704.800	3.594	0.100
704.900	11.337	0.100
705.000	-0.117	0.100
705.100	-2.703	0.100
705.200	-1.247	0.100
705.300	13.125	0.100
705.400	24.369	0.100
705.500	8.543	0.100
705.600	6.900	0.100
705.700	12.106	0.100
705.800	5.586	0.100
705.900	5.826	0.100
706.000	11.212	0.100
706.100	-4.013	0.100
706.200	-2.744	0.100
706.300	1.459	0.100
706.400	4.915	0.100
706.500	21.164	0.100
706.600	-6.899	0.100
706.700	5.520	0.100
706.800	7.175	0.100
706.900	-1.125	0.100
707.000	6.345	0.100
707.100	4.102	0.100
707.200	7.116	0.100
707.300	-4.764	0.100
707.400	7.381	0.100
707.500	12.654	0.100
707.600	5.730	0.100
707.700	-1.967	0.100
707.800	4.903	0.100
707.900	-1.952	0.100
708.000	11.352	0.100
708.100	7.103	0.100
708.200	7.279	0.100
708.300	-0.531	0.100
708.400	5.482	0.100
708.500	-1.453	0.100
708.600	5.325	0.100
708.700	12.175	0.100
708.800	-1.721	0.100
708.900	-4.552	0.100
709.000	4.704	0.100
709.100	8.531	0.100
709.200	1.166	0.100
709.300	1.092	0.100
709.400	6.878	0.100
709.500	11.496	0.100
709.600	0.637	0.100
709.700	-1.535	0.100
709.800	2.589	0.100
709.900	-2.818	0.100
710.000	1.171	0.100
710.100	2.282	0.100
710.200	2.329	0.100
710.300	-0.500	0.100
710.400	11.161	0.100
710.500	-1.677	0.100
710.600	1.559	0.100
710.700	3.255	0.100
710.800	3.274	0.100
710.900	14.016	0.100
711.000	4.481	0.100
711.100	-10.554	0.100
711.200	5.255	0.100
711.300	7.773	0.100
711.400	0.173	0.100
711.500	2.758	0.100
711.600	4.740	0.100
711.700	-6.298	0.100
711.800	10.418	0.100
711.900	11.625	0.100
712.000	5.025	0.100
712.100	6.342	0.100
712.200	-1.905	0.100
712.300	2.433	0.100
712.400	-5.712	0.100
712.500	8.802	0.100
712.600	3.754	0.100
712.700	-0.747	0.100
712.800	-2.992	0.100
712.900	-2.410	0.100
713.000	13.216	0.100
713.100	-0.689	0.100
713.200	6.708	0.100
713.300	-8.713	0.100
713.400	15.099	0.100
713.500	11.252	0.100
713.600	7.772	0.100
713.700	1.852	0.100
713.800	13.091	0.100
713.900	-2.254	0.100
714.000	3.294	0.100
714.100	1.491	0.100
714.200	3.716	0.100
714.300	-2.017	0.100
714.400	-6.693	0.100
714.500	-0.346	0.100
714.600	7.625	0.100
714.700	6.452	0.100
714.800	-6.096	0.100
714.900	-1.304	0.100
715.000	-3.909	0.100
715.100	-0.913	0.100
715.200	0.235	0.100
715.300	12.007	0.100
715.400	-1.328	0.100
715.500	-3.430	0.100
715.600	-0.471	0.100
715.700	10.609	0.100
715.800	5.750	0.100
715.900	-2.289	0.100
716.000	-4.961	0.100
716.100	4.060	0.100
716.200	8.291	0.100
716.300	-1.857	0.100
716.400	9.956	0.100
716.500	-9.522	0.100
716.600	3.837	0.100
716.700	5.250	0.100
716.800	-4.108	0.100
716.900	-12.501	0.100
717.000	-6.833	0.100
717.100	-5.306	0.100
717.200	5.295	0.100
717.300	4.543	0.100
717.400	-11.817	0.100
717.500	-5.697	0.100
717.600	7.417	0.100
717.700	-10.492	0.100
717.800	9.762	0.100
717.900	2.287	0.100
718.000	2.208	0.100
718.100	3.099	0.100
718.200	-5.410	0.100
718.300	-10.601	0.100
718.400	-5.309	0.100
718.500	3.304	0.100
718.600	-7.494	0.100
718.700	-6.352	0.100
718.800	-2.725	0.100
718.900	1.881	0.100
719.000	0.024	0.100
719.100	-7.700	0.100
719.200	4.079	0.100
719.300	9.104	0.100
719.400	2.314	0.100
719.500	-4.501	0.100
719.600	-6.048	0.100
719.700	-2.439	0.100
719.800	8.533	0.100
719.900	17.887	0.100
720.000	-8.262	0.100
720.100	-5.367	0.100
720.200	7.863	0.100
720.300	-9.814	0.100
720.400	-4.942	0.100
720.500	3.686	0.100
720.600	11.010	0.100
720.700	5.203	0.100
720.800	-9.664	0.100
720.900	-7.052	0.100
721.000	-1.166	0.100
721.100	3.515	0.100
721.200	-4.364	0.100
721.300	-9.562	0.100
721.400	5.256	0.100
721.500	1.177	0.100
721.600	2.247	0.100
721.700	-4.664	0.100
721.800	-2.201	0.100
721.900	0.805	0.100
722.000	3.485	0.100
722.100	-4.999	0.100
722.200	-16.539	0.100
722.300	0.844	0.100
722.400	-5.764	0.100
722.500	-17.007	0.100
722.600	2.513	0.100
722.700	-3.033	0.100
722.800	4.901	0.100
722.900	9.836	0.100
723.000	-5.546	0.100
723.100	-6.798	0.100
723.200	4.162	0.100
723.300	-3.209	0.100
723.400	-9.717	0.100
723.500	-7.332	0.100
723.600	-3.098	0.100
723.700	4.986	0.100
723.800	-15.361	0.100
723.900	-3.903	0.100
724.000	4.049	0.100
724.100	1.170	0.100
724.200	-14.005	0.100
724.300	2.850	0.100
724.400	-9.742	0.100
724.500	-0.553	0.100
724.600	-2.883	0.100
724.700	-14.612	0.100
724.800	-0.092	0.100
724.900	-0.132	0.100
725.000	8.768	0.100
725.100	-2.697	0.100
725.200	6.827	0.100
725.300	-11.213	0.100
725.400	-0.644	0.100
725.500	-1.762	0.100
725.600	2.665	0.100
725.700	1.625	0.100
725.800	-0.588	0.100
725.900	-0.884	0.100
726.000	3.078	0.100
726.100	-9.147	0.100
726.200	-2.931	0.100
726.300	0.554	0.100
726.400	-3.759	0.100
726.500	-14.703	0.100
726.600	5.710	0.100
726.700	-4.501	0.100
726.800	-13.639	0.100
726.900	9.043	0.100
727.000	-11.141	0.100
727.100	3.877	0.100
727.200	-12.598	0.100
727.300	-9.235	0.100
727.400	4.531	0.100
727.500	0.351	0.100
727.600	-6.448	0.100
727.700	-0.527	0.100
727.800	-0.358	0.100
727.900	-4.741	0.100
728.000	-1.183	0.100
728.100	-6.309	0.100
728.200	-11.929	0.100
728.300	-12.742	0.100
728.400	-0.845	0.100
728.500	27.710	0.100
728.600	-2.166	0.100
728.700	-14.690	0.100
728.800	9.652	0.100
728.900	-1.116	0.100
729.000	-5.277	0.100
729.100	-5.551	0.100
729.200	-10.555	0.100
729.300	-13.203	0.100
729.400	-12.435	0.100
729.500	-9.712	0.100
729.600	7.340	0.100
729.700	1.413	0.100
729.800	-8.288	0.100
729.900	-8.375	0.100
730.000	-7.899	0.100
730.100	0.618	0.100
730.200	-7.552	0.100
730.300	-7.447	0.100
730.400	6.503	0.100
730.500	0.230	0.100
730.600	1.473	0.100
730.700	-10.750	0.100
730.800	-20.034	0.100
730.900	-5.524	0.100
731.000	2.473	0.100
731.100	4.151	0.100
731.200	-11.510	0.100
731.300	-1.670	0.100
731.400	-6.641	0.100
731.500	-6.853	0.100
731.600	3.554	0.100
731.700	-2.548	0.100
731.800	-5.874	0.100
731.900	0.174	0.100
732.000	-12.697	0.100
732.100	-9.634	0.100
732.200	-5.063	0.100
732.300	-3.441	0.100
732.400	-7.347	0.100
732.500	1.233	0.100
732.600	-1.337	0.100
732.700	-4.364	0.100
732.800	-11.982	0.100
732.900	-4.794	0.100
733.000	-17.457	0.100
733.100	-8.214	0.100
733.200	-0.869	0.100
733.300	4.816	0.100
733.400	-2.431	0.100
733.500	-18.460	0.100
733.600	5.609	0.100
733.700	-3.084	0.100
733.800	-9.977	0.100
733.900	-7.210	0.100
734.000	-9.874	0.100
734.100	4.471	0.100
734.200	-3.589	0.100
734.300	0.377	0.100
734.400	-7.028	0.100
734.500	-14.277	0.100
734.600	-9.180	0.100
734.700	-3.606	0.100
734.800	8.593	0.100
734.900	3.725	0.100
735.000	-3.570	0.100
735.100	-9.849	0.100
735.200	0.916	0.100
735.300	4.020	0.100
735.400	-0.385	0.100
735.500	-10.361	0.100
735.600	-9.106	0.100
735.700	-6.162	0.100
735.800	-5.204	0.100
735.900	-1.309	0.100
736.000	-4.573	0.100
736.100	-12.592	0.100
736.200	2.876	0.100
736.300	-1.508	0.100
736.400	-8.093	0.100
736.500	-0.880	0.100
736.600	-12.875	0.100
736.700	5.145	0.100
736.800	-1.325	0.100
736.900	-8.004	0.100
737.000	-3.993	0.100
737.100	-8.870	0.100
737.200	-7.318	0.100
737.300	-4.440	0.100
737.400	-6.247	0.100
737.500	-0.564	0.100
737.600	-16.330	0.100
737.700	-7.446	0.100
737.800	-6.281	0.100
737.900	-4.129	0.100
738.000	-4.392	0.100
738.100	-16.160	0.100
738.200	5.437	0.100
738.300	-3.308	0.100
738.400	-13.825	0.100
738.500	-10.575	0.100
738.600	7.447	0.100
738.700	-10.117	0.100
738.800	-11.271	0.100
738.900	-13.942	0.100
739.000	-2.457	0.100
739.100	9.102	0.100
739.200	-11.815	0.100
739.300	-0.835	0.100
739.400	-14.313	0.100
739.500	-10.244	0.100
739.600	-3.692	0.100
739.700	4.259	0.100
739.800	-2.147	0.100
739.900	-18.855	0.100
740.000	-10.929	0.100
740.100	8.829	0.100
740.200	-13.188	0.100
740.300	1.182	0.100
740.400	-7.580	0.100
740.500	1.816	0.100
740.600	0.773	0.100
740.700	-7.615	0.100
740.800	-9.194	0.100
740.900	1.659	0.100
741.000	-5.351	0.100
741.100	-1.361	0.100
741.200	-6.959	0.100
741.300	-9.159	0.100
741.400	-6.402	0.100
741.500	4.126	0.100
741.600	-10.212	0.100
741.700	3.346	0.100
741.800	-6.933	0.100
741.900	-0.321	0.100
742.000	1.375	0.100
742.100	-9.091	0.100
742.200	-18.062	0.100
742.300	-0.376	0.100
742.400	-10.638	0.100
742.500	-10.078	0.100
742.600	-14.178	0.100
742.700	-13.739	0.100
742.800	-12.227	0.100
742.900	5.918	0.100
743.000	-14.484	0.100
743.100	5.839	0.100
743.200	-0.612	0.100
743.300	-11.595	0.100
743.400	-13.230	0.100
743.500	-7.563	0.100
743.600	-8.960	0.100
743.700	-0.057	0.100
743.800	-21.481	0.100
743.900	5.322	0.100
744.000	3.384	0.100
744.100	-19.635	0.100
744.200	-10.462	0.100
744.300	11.419	0.100
744.400	-2.573	0.100
744.500	-4.441	0.100
744.600	-13.143	0.100
744.700	-4.344	0.100
744.800	-22.160	0.100
744.900	-2.448	0.100
745.000	-13.237	0.100
745.100	-8.541	0.100
745.200	-16.687	0.100
745.300	-11.791	0.100
745.400	-0.219	0.100
745.500	9.138	0.100
745.600	-8.769	0.100
745.700	-2.674	0.100
745.800	-8.924	0.100
745.900	-5.326	0.100
746.000	2.384	0.100
746.100	-7.344	0.100
746.200	-4.821	0.100
746.300	-9.709	0.100
746.400	-15.479	0.100
746.500	9.217	0.100
746.600	-6.029	0.100
746.700	-2.986	0.100
746.800	-8.750	0.100
746.900	-5.731	0.100
747.000	-1.717	0.100
747.100	-14.616	0.100
747.200	-0.329	0.100
747.300	4.454	0.100
747.400	-6.613	0.100
747.500	-6.176	0.100
747.600	-7.778	0.100
747.700	-1.470	0.100
747.800	-11.892	0.100
747.900	-14.932	0.100
748.000	-6.417	0.100
748.100	-3.506	0.100
748.200	-8.979	0.100
748.300	-0.614	0.100
748.400	-1.536	0.100
748.500	-8.465	0.100
748.600	-6.864	0.100
748.700	-5.815	0.100
748.800	2.787	0.100
748.900	-2.462	0.100
749.000	-3.015	0.100
749.100	-9.861	0.100
749.200	-17.272	0.100
749.300	-8.337	0.100
749.400	-4.715	0.100
749.500	-13.757	0.100
749.600	0.295	0.100
749.700	-2.403	0.100
749.800	-22.015	0.100
749.900	-3.777	0.100
750.000	-8.115	0.100
750.100	-9.152	0.100
750.200	-8.218	0.100
750.300	-4.150	0.100
750.400	0.081	0.100
750.500	-19.200	0.100
750.600	5.373	0.100
750.700	-8.326	0.100
750.800	5.280	0.100
750.900	-6.769	0.100
751.000	1.044	0.100
751.100	-6.338	0.100
751.200	-9.548	0.100
751.300	-0.195	0.100
751.400	-3.719	0.100
751.500	3.311	0.100
751.600	-3.159	0.100
751.700	-16.938	0.100
751.800	-8.114	0.100
751.900	-13.154	0.100
752.000	-19.059	0.100
752.100	0.812	0.100
752.200	8.047	0.100
752.300	-4.478	0.100
752.400	-23.021	0.100
752.500	0.209	0.100
752.600	1.167	0.100
752.700	-5.503	0.100
752.800	-23.689	0.100
752.900	-10.471	0.100
753.000	-11.028	0.100
753.100	1.401	0.100
753.200	-11.132	0.100
753.300	-1.421	0.100
753.400	-1.536	0.100
753.500	2.088	0.100
753.600	-13.112	0.100
753.700	-16.810	0.100
753.800	-9.715	0.100
753.900	-6.680	0.100
754.000	-0.273	0.100
754.100	-4.390	0.100
754.200	-10.396	0.100
754.300	-8.861	0.100
754.400	3.281	0.100
754.500	0.744	0.100
754.600	-6.100	0.100
754.700	-3.085	0.100
754.800	-6.733	0.100
754.900	-13.080	0.100
755.000	-11.950	0.100
755.100	-6.303	0.100
755.200	-7.797	0.100
755.300	-10.666	0.100
755.400	-4.584	0.100
755.500	-4.031	0.100
755.600	-4.327	0.100
755.700	5.125	0.100
755.800	-0.454	0.100
755.900	-7.349	0.100
756.000	-18.947	0.100
756.100	-5.117	0.100
756.200	2.463	0.100
756.300	6.530	0.100
756.400	2.192	0.100
756.500	-5.963	0.100
756.600	-9.099	0.100
756.700	3.378	0.100
756.800	-1.426	0.100
756.900	-7.094	0.100
757.000	6.350	0.100
757.100	-15.084	0.100
757.200	4.119	0.100
757.300	-6.068	0.100
757.400	0.469	0.100
757.500	-14.151	0.100
757.600	-6.934	0.100
757.700	-4.607	0.100
757.800	-8.734	0.100
757.900	-4.991	0.100
758.000	-15.353	0.100
758.100	-12.301	0.100
758.200	3.855	0.100
758.300	6.728	0.100
758.400	-0.918	0.100
758.500	3.275	0.100
758.600	-3.124	0.100
758.700	-4.519	0.100
758.800	-13.649	0.100
758.900	-9.951	0.100
759.000	1.395	0.100
759.100	-14.382	0.100
759.200	0.931	0.100
759.300	-10.811	0.100
759.400	-0.796	0.100
759.500	-7.344	0.100
759.600	3.970	0.100
759.700	-11.313	0.100
759.800	-5.984	0.100
759.900	-4.496	0.100
760.000	-7.180	0.100
760.100	-4.847	0.100
760.200	-1.328	0.100
760.300	-9.355	0.100
760.400	-5.694	0.100
760.500	-13.004	0.100
760.600	-5.513	0.100
760.700	-10.874	0.100
760.800	-13.774	0.100
760.900	-3.517	0.100
761.000	9.891	0.100
761.100	-17.602	0.100
761.200	-0.972	0.100
761.300	-2.640	0.100
761.400	-5.564	0.100
761.500	-9.407	0.100
761.600	-12.046	0.100
761.700	5.706	0.100
761.800	-4.133	0.100
761.900	-1.717	0.100
762.000	-1.020	0.100
762.100	3.463	0.100
762.200	-7.265	0.100
762.300	-7.418	0.100
762.400	-8.333	0.100
762.500	-0.563	0.100
762.600	9.767	0.100
762.700	-7.660	0.100
762.800	-7.277	0.100
762.900	0.242	0.100
763.000	0.375	0.100
763.100	-3.519	0.100
763.200	-7.429	0.100
763.300	-4.503	0.100
763.400	-8.266	0.100
763.500	-10.297	0.100
763.600	-17.210	0.100
763.700	-7.322	0.100
763.800	-6.178	0.100
763.900	5.595	0.100
764.000	-3.314	0.100
764.100	1.899	0.100
764.200	-16.895	0.100
764.300	-1.607	0.100
764.400	0.820	0.100
764.500	-8.113	0.100
764.600	-4.749	0.100
764.700	-6.419	0.100
764.800	-0.039	0.100
764.900	-10.278	0.100
765.000	-2.078	0.100
765.100	-10.635	0.100
765.200	-8.780	0.100
765.300	-10.407	0.100
765.400	0.566	0.100
765.500	-1.600	0.100
765.600	-21.699	0.100
765.700	6.601	0.100
765.800	-10.068	0.100
765.900	-6.600	0.100
766.000	-2.428	0.100
766.100	-5.305	0.100
766.200	-7.883	0.100
766.300	-17.505	0.100
766.400	-1.205	0.100
766.500	-4.308	0.100
766.600	-8.694	0.100
766.700	1.102	0.100
766.800	-8.314	0.100
766.900	-4.782	0.100
767.000	2.106	0.100
767.100	-9.750	0.100
767.200	-17.053	0.100
767.300	-6.849	0.100
767.400	-0.201	0.100
767.500	-1.687	0.100
767.600	-10.162	0.100
767.700	-12.011	0.100
767.800	-1.551	0.100
767.900	-9.541	0.100
768.000	-2.555	0.100
768.100	-8.170	0.100
768.200	1.199	0.100
768.300	-11.166	0.100
768.400	0.408	0.100
768.500	4.754	0.100
768.600	-5.524	0.100
768.700	-18.477	0.100
768.800	-0.730	0.100
768.900	-5.641	0.100
769.000	-3.260	0.100
769.100	-5.840	0.100
769.200	-9.531	0.100
769.300	3.215	0.100
769.400	-16.362	0.100
769.500	-1.639	0.100
769.600	-14.083	0.100
769.700	5.186	0.100
769.800	-0.403	0.100
769.900	-16.142	0.100
770.000	-0.865	0.100
770.100	-0.060	0.100
770.200	-3.904	0.100
770.300	-0.646	0.100
770.400	-13.333	0.100
770.500	2.531	0.100
770.600	-9.481	0.100
770.700	-7.803	0.100
770.800	-14.474	0.100
770.900	-2.271	0.100
771.000	9.189	0.100
771.100	-0.061	0.100
771.200	-16.552	0.100
771.300	-3.131	0.100
771.400	-2.436	0.100
771.500	-7.148	0.100
771.600	-12.107	0.100
771.700	-10.210	0.100
771.800	-3.986	0.100
771.900	-6.811	0.100
772.000	1.117	0.100
772.100	-1.493	0.100
772.200	-18.589	0.100
772.300	-12.590	0.100
772.400	-2.354	0.100
772.500	-21.672	0.100
772.600	1.802	0.100
772.700	-1.230	0.100
772.800	-8.302	0.100
772.900	-14.587	0.100
773.000	-7.147	0.100
773.100	-1.641	0.100
773.200	-6.236	0.100
773.300	-8.279	0.100
773.400	-6.824	0.100
773.500	1.371	0.100
773.600	2.408	0.100
773.700	-17.204	0.100
773.800	-3.298	0.100
773.900	0.102	0.100
774.000	-10.727	0.100
774.100	-8.786	0.100
774.200	-3.753	0.100
774.300	-5.307	0.100
774.400	-4.874	0.100
774.500	-8.650	0.100
774.600	-1.164	0.100
774.700	-2.113	0.100
774.800	-2.158	0.100
774.900	-13.847	0.100
775.000	0.325	0.100
775.100	-2.087	0.100
775.200	-1.390	0.100
775.300	9.611	0.100
775.400	-1.147	0.100
775.500	-6.137	0.100
775.600	-3.061	0.100
775.700	-3.653	0.100
775.800	-4.149	0.100
775.900	3.722	0.100
776.000	5.618	0.100
776.100	2.790	0.100
776.200	-13.803	0.100
776.300	-11.871	0.100
776.400	5.388	0.100
776.500	1.829	0.100
776.600	16.269	0.100
776.700	-10.885	0.100
776.800	-6.656	0.100
776.900	-5.525	0.100
777.000	-9.569	0.100
777.100	-5.073	0.100
777.200	-9.675	0.100
777.300	0.961	0.100
777.400	-6.582	0.100
777.500	5.536	0.100
777.600	2.447	0.100
777.700	-7.666	0.100
777.800	-2.514	0.100
777.900	-6.522	0.100
778.000	1.468	0.100
778.100	-3.996	0.100
778.200	-2.778	0.100
778.300	2.680	0.100
778.400	-12.084	0.100
778.500	-16.604	0.100
778.600	-6.583	0.100
778.700	-12.940	0.100
778.800	-1.973	0.100
778.900	-1.100	0.100
779.000	-3.551	0.100
779.100	-5.910	0.100
779.200	-0.144	0.100
779.300	-3.331	0.100
779.400	-1.892	0.100
779.500	-10.544	0.100
779.600	-7.114	0.100
779.700	-22.321	0.100
779.800	-9.890	0.100
779.900	-1.296	0.100
780.000	2.138	0.100
780.100	-5.909	0.100
780.200	-8.008	0.100
780.300	-9.161	0.100
780.400	-6.033	0.100
780.500	-5.661	0.100
780.600	-3.151	0.100
780.700	-3.768	0.100
780.800	-6.097	0.100
780.900	-6.302	0.100
781.000	1.403	0.100
781.100	-5.346	0.100
781.200	-1.449	0.100
781.300	5.384	0.100
781.400	-2.695	0.100
781.500	-3.547	0.100
781.600	-3.131	0.100
781.700	2.378	0.100
781.800	-10.265	0.100
781.900	-1.792	0.100
782.000	-17.236	0.100
782.100	0.331	0.100
782.200	10.895	0.100
782.300	6.983	0.100
782.400	-1.955	0.100
782.500	5.866	0.100
782.600	3.001	0.100
782.700	2.278	0.100
782.800	-2.100	0.100
782.900	-1.336	0.100
783.000	-15.659	0.100
783.100	-2.690	0.100
783.200	3.308	0.100
783.300	5.564	0.100
783.400	-2.816	0.100
783.500	6.303	0.100
783.600	-8.367	0.100
783.700	3.921	0.100
783.800	1.036	0.100
783.900	-2.356	0.100
784.000	2.899	0.100
784.100	-0.688	0.100
784.200	5.846	0.100
784.300	12.459	0.100
784.400	-2.521	0.100
784.500	5.260	0.100
784.600	14.398	0.100
784.700	-10.704	0.100
784.800	2.361	0.100
784.900	2.179	0.100
785.000	12.617	0.100
785.100	2.469	0.100
785.200	0.886	0.100
785.300	2.625	0.100
785.400	-10.177	0.100
785.500	2.832	0.100
785.600	4.268	0.100
785.700	6.930	0.100
785.800	8.320	0.100
785.900	1.456	0.100
786.000	8.297	0.100
786.100	0.240	0.100
786.200	-0.383	0.100
786.300	3.869	0.100
786.400	2.889	0.100
786.500	-7.449	0.100
786.600	7.286	0.100
786.700	5.478	0.100
786.800	-6.069	0.100
786.900	-3.453	0.100
787.000	6.155	0.100
787.100	1.783	0.100
787.200	-0.740	0.100
787.300	10.548	0.100
787.400	-10.942	0.100
787.500	0.495	0.100
787.600	7.922	0.100
787.700	-5.407	0.100
787.800	6.367	0.100
787.900	7.837	0.100
788.000	7.296	0.100
788.100	5.204	0.100
788.200	0.910	0.100
788.300	5.626	0.100
788.400	13.080	0.100
788.500	-5.163	0.100
788.600	3.775	0.100
788.700	-8.096	0.100
788.800	8.434	0.100
788.900	6.436	0.100
789.000	-4.462	0.100
789.100	1.667	0.100
789.200	12.770	0.100
789.300	-3.920	0.100
789.400	5.717	0.100
789.500	16.254	0.100
789.600	8.527	0.100
789.700	-0.966	0.100
789.800	14.720	0.100
789.900	11.087	0.100
790.000	7.486	0.100
790.100	2.285	0.100
790.200	-4.252	0.100
790.300	1.094	0.100
790.400	6.450	0.100
790.500	9.664	0.100
790.600	6.687	0.100
790.700	4.267	0.100
790.800	5.106	0.100
790.900	5.390	0.100
791.000	-1.703	0.100
791.100	5.412	0.100
791.200	2.695	0.100
791.300	11.468	0.100
791.400	0.123	0.100
791.500	-0.316	0.100
791.600	2.098	0.100
791.700	0.515	0.100
791.800	1.150	0.100
791.900	20.458	0.100
792.000	3.873	0.100
792.100	-2.501	0.100
792.200	6.429	0.100
792.300	5.143	0.100
792.400	0.846	0.100
792.500	13.396	0.100
792.600	1.206	0.100
792.700	-15.105	0.100
792.800	9.707	0.100
792.900	21.100	0.100
793.000	-3.440	0.100
793.100	-4.654	0.100
793.200	6.854	0.100
793.300	10.357	0.100
793.400	-4.805	0.100
793.500	11.443	0.100
793.600	-4.306	0.100
793.700	10.663	0.100
793.800	5.328	0.100
793.900	7.319	0.100
794.000	11.624	0.100
794.100	14.435	0.100
794.200	8.551	0.100
794.300	0.374	0.100
794.400	-2.029	0.100
794.500	12.321	0.100
794.600	13.914	0.100
794.700	6.393	0.100
794.800	7.768	0.100
794.900	-2.478	0.100
795.000	18.998	0.100
795.100	7.854	0.100
795.200	0.817	0.100
795.300	6.089	0.100
795.400	4.898	0.100
795.500	12.253	0.100
795.600	6.179	0.100
795.700	10.334	0.100
795.800	-0.747	0.100
795.900	12.525	0.100
796.000	0.179	0.100
796.100	5.578	0.100
796.200	4.102	0.100
796.300	4.687	0.100
796.400	9.130	0.100
796.500	3.312	0.100
796.600	10.661	0.100
796.700	1.181	0.100
796.800	2.553	0.100
796.900	23.542	0.100
797.000	-4.369	0.100
797.100	2.296	0.100
797.200	14.854	0.100
797.300	6.885	0.100
797.400	6.667	0.100
797.500	19.019	0.100
797.600	-0.555	0.100
797.700	3.093	0.100
797.800	10.620	0.100
797.900	4.352	0.100
798.000	10.801	0.100
798.100	-1.031	0.100
798.200	8.123	0.100
798.300	12.928	0.100
798.400	3.286	0.100
798.500	12.409	0.100
798.600	11.347	0.100
798.700	10.054	0.100
798.800	-5.168	0.100
798.900	16.873	0.100
799.000	15.820	0.100
799.100	20.380	0.100
799.200	-1.683	0.100
799.300	12.681	0.100
799.400	9.609	0.100
799.500	8.747	0.100
799.600	22.493	0.100
799.700	1.142	0.100
799.800	1.958	0.100
799.900	15.795	0.100
800.000	12.353	0.100
