time /s	I /nA	E /V
0.100	-47.723	0.100
0.200	-52.068	0.100
0.300	-35.548	0.100
0.400	-45.235	0.100
0.500	-53.149	0.100
0.600	-55.960	0.100
0.700	-51.857	0.100
0.800	-39.034	0.100
0.900	-42.138	0.100
1.000	-44.956	0.100
1.100	-42.192	0.100
1.200	-45.464	0.100
1.300	-44.681	0.100
1.400	-44.150	0.100
1.500	-48.091	0.100
1.600	-40.558	0.100
1.700	-42.931	0.100
1.800	-50.398	0.100
1.900	-42.376	0.100
2.000	-47.294	0.100
2.100	-48.572	0.100
2.200	-45.766	0.100
2.300	-45.191	0.100
2.400	-49.429	0.100
2.500	-38.031	0.100
2.600	-35.551	0.100
2.700	-51.846	0.100
2.800	-48.887	0.100
2.900	-45.582	0.100
3.000	-45.439	0.100
3.100	-32.622	0.100
3.200	-40.421	0.100
3.300	-46.154	0.100
3.400	-48.071	0.100
3.500	-50.831	0.100
3.600	-41.442	0.100
3.700	-34.006	0.100
3.800	-42.387	0.100
3.900	-45.889	0.100
4.000	-57.201	0.100
4.100	-39.970	0.100
4.200	-42.753	0.100
4.300	-45.299	0.100
4.400	-38.020	0.100
4.500	-33.483	0.100
4.600	-43.086	0.100
4.700	-46.490	0.100
4.800	-43.713	0.100
4.900	-35.495	0.100
5.000	-43.543	0.100
5.100	-39.741	0.100
5.200	-42.841	0.100
5.300	-48.777	0.100
5.400	-49.557	0.100
5.500	-50.728	0.100
5.600	-38.201	0.100
5.700	-31.590	0.100
5.800	-33.471	0.100
5.900	-39.941	0.100
6.000	-40.634	0.100
6.100	-41.771	0.100
6.200	-40.940	0.100
6.300	-50.039	0.100
6.400	-47.502	0.100
6.500	-38.120	0.100
6.600	-43.594	0.100
6.700	-46.886	0.100
6.800	-41.751	0.100
6.900	-40.245	0.100
7.000	-34.212	0.100
7.100	-34.657	0.100
7.200	-39.937	0.100
7.300	-42.310	0.100
7.400	-41.052	0.100
7.500	-47.810	0.100
7.600	-44.448	0.100
7.700	-44.144	0.100
7.800	-38.647	0.100
7.900	-36.168	0.100
8.000	-37.222	0.100
8.100	-42.489	0.100
8.200	-47.467	0.100
8.300	-40.236	0.100
8.400	-39.487	0.100
8.500	-35.957	0.100
8.600	-43.557	0.100
8.700	-44.132	0.100
8.800	-25.248	0.100
8.900	-29.839	0.100
9.000	-32.162	0.100
9.100	-37.550	0.100
9.200	-44.630	0.100
9.300	-47.346	0.100
9.400	-40.916	0.100
9.500	-45.411	0.100
9.600	-45.810	0.100
9.700	-39.879	0.100
9.800	-38.594	0.100
9.900	-47.515	0.100
10.000	-48.406	0.100
10.100	-33.022	0.100
10.200	-30.847	0.100
10.300	-46.537	0.100
10.400	-41.982	0.100
10.500	-40.428	0.100
10.600	-33.271	0.100
10.700	-43.291	0.100
10.800	-34.347	0.100
10.900	-38.276	0.100
11.000	-35.876	0.100
11.100	-37.588	0.100
11.200	-40.122	0.100
11.300	-38.744	0.100
11.400	-45.204	0.100
11.500	-39.412	0.100
11.600	-40.463	0.100
11.700	-48.114	0.100
11.800	-40.113	0.100
11.900	-39.137	0.100
12.000	-46.871	0.100
12.100	-37.732	0.100
12.200	-37.728	0.100
12.300	-34.734	0.100
12.400	-32.621	0.100
12.500	-43.999	0.100
12.600	-39.089	0.100
12.700	-38.644	0.100
12.800	-37.525	0.100
12.900	-38.541	0.100
13.000	-36.167	0.100
13.100	-41.755	0.100
13.200	-37.573	0.100
13.300	-38.400	0.100
13.400	-32.056	0.100
13.500	-40.174	0.100
13.600	-35.512	0.100
13.700	-35.488	0.100
13.800	-39.887	0.100
13.900	-36.646	0.100
14.000	-51.371	0.100
14.100	-42.943	0.100
14.200	-35.195	0.100
14.300	-35.711	0.100
14.400	-34.984	0.100
14.500	-47.069	0.100
14.600	-37.319	0.100
14.700	-47.144	0.100
14.800	-36.357	0.100
14.900	-37.519	0.100
15.000	-30.399	0.100
15.100	-42.625	0.100
15.200	-35.501	0.100
15.300	-33.771	0.100
15.400	-34.119	0.100
15.500	-36.831	0.100
15.600	-30.559	0.100
15.700	-34.214	0.100
15.800	-41.116	0.100
15.900	-35.324	0.100
16.000	-39.772	0.100
16.100	-40.979	0.100
16.200	-33.163	0.100
16.300	-24.787	0.100
16.400	-43.620	0.100
16.500	-45.110	0.100
16.600	-45.075	0.100
16.700	-41.634	0.100
16.800	-34.037	0.100
16.900	-44.531	0.100
17.000	-36.593	0.100
17.100	-41.450	0.100
17.200	-31.597	0.100
17.300	-26.316	0.100
17.400	-46.075	0.100
17.500	-42.196	0.100
17.600	-35.105	0.100
17.700	-35.110	0.100
17.800	-38.944	0.100
17.900	-36.793	0.100
18.000	-36.913	0.100
18.100	-35.603	0.100
18.200	-27.645	0.100
18.300	-32.883	0.100
18.400	-35.465	0.100
18.500	-36.080	0.100
18.600	-46.129	0.100
18.700	-37.929	0.100
18.800	-40.210	0.100
18.900	-27.944	0.100
19.000	-32.533	0.100
19.100	-21.807	0.100
19.200	-34.676	0.100
19.300	-38.088	0.100
19.400	-38.400	0.100
19.500	-33.171	0.100
19.600	-34.355	0.100
19.700	-33.607	0.100
19.800	-36.621	0.100
19.900	-49.606	0.100
20.000	-37.152	0.100
20.100	-31.545	0.100
20.200	-28.588	0.100
20.300	-39.040	0.100
20.400	-35.279	0.100
20.500	-30.087	0.100
20.600	-31.822	0.100
20.700	-38.808	0.100
20.800	-40.005	0.100
20.900	-32.657	0.100
21.000	-39.894	0.100
21.100	-37.164	0.100
21.200	-41.632	0.100
21.300	-34.758	0.100
21.400	-45.310	0.100
21.500	-24.967	0.100
21.600	-35.364	0.100
21.700	-34.844	0.100
21.800	-42.678	0.100
21.900	-33.703	0.100
22.000	-44.055	0.100
22.100	-23.754	0.100
22.200	-32.477	0.100
22.300	-37.115	0.100
22.400	-34.479	0.100
22.500	-33.549	0.100
22.600	-30.828	0.100
22.700	-30.757	0.100
22.800	-36.782	0.100
22.900	-36.505	0.100
23.000	-41.644	0.100
23.100	-30.910	0.100
23.200	-33.516	0.100
23.300	-29.265	0.100
23.400	-27.879	0.100
23.500	-33.057	0.100
23.600	-38.250	0.100
23.700	-24.570	0.100
23.800	-35.104	0.100
23.900	-30.525	0.100
24.000	-22.569	0.100
24.100	-35.368	0.100
24.200	-34.212	0.100
24.300	-31.660	0.100
24.400	-36.924	0.100
24.500	-38.743	0.100
24.600	-36.569	0.100
24.700	-33.172	0.100
24.800	-34.214	0.100
24.900	-28.531	0.100
25.000	-37.964	0.100
25.100	-37.310	0.100
25.200	-32.119	0.100
25.300	-28.809	0.100
25.400	-33.891	0.100
25.500	-35.383	0.100
25.600	-35.873	0.100
25.700	-30.160	0.100
25.800	-33.586	0.100
25.900	-25.254	0.100
26.000	-30.381	0.100
26.100	-31.143	0.100
26.200	-39.580	0.100
26.300	-29.286	0.100
26.400	-28.066	0.100
26.500	-32.878	0.100
26.600	-38.769	0.100
26.700	-35.166	0.100
26.800	-32.549	0.100
26.900	-28.314	0.100
27.000	-39.172	0.100
27.100	-40.371	0.100
27.200	-31.976	0.100
27.300	-31.373	0.100
27.400	-28.213	0.100
27.500	-34.526	0.100
27.600	-35.231	0.100
27.700	-39.505	0.100
27.800	-29.793	0.100
27.900	-28.648	0.100
28.000	-39.384	0.100
28.100	-43.395	0.100
28.200	-27.956	0.100
28.300	-26.765	0.100
28.400	-33.317	0.100
28.500	-46.317	0.100
28.600	-33.714	0.100
28.700	-27.955	0.100
28.800	-23.624	0.100
28.900	-37.683	0.100
29.000	-34.117	0.100
29.100	-42.232	0.100
29.200	-38.769	0.100
29.300	-25.668	0.100
29.400	-22.973	0.100
29.500	-26.321	0.100
29.600	-32.841	0.100
29.700	-26.049	0.100
29.800	-47.780	0.100
29.900	-31.005	0.100
30.000	-45.052	0.100
30.100	-37.509	0.100
30.200	-31.565	0.100
30.300	-23.247	0.100
30.400	-26.937	0.100
30.500	-45.612	0.100
30.600	-35.031	0.100
30.700	-23.333	0.100
30.800	-30.329	0.100
30.900	-23.787	0.100
31.000	-42.728	0.100
31.100	-38.449	0.100
31.200	-30.448	0.100
31.300	-38.249	0.100
31.400	-39.334	0.100
31.500	-20.218	0.100
31.600	-37.138	0.100
31.700	-25.272	0.100
31.800	-23.745	0.100
31.900	-35.410	0.100
32.000	-33.623	0.100
32.100	-30.628	0.100
32.200	-26.658	0.100
32.300	-29.159	0.100
32.400	-39.451	0.100
32.500	-30.503	0.100
32.600	-29.114	0.100
32.700	-36.064	0.100
32.800	-26.399	0.100
32.900	-31.834	0.100
33.000	-25.893	0.100
33.100	-37.499	0.100
33.200	-21.380	0.100
33.300	-33.059	0.100
33.400	-24.510	0.100
33.500	-28.499	0.100
33.600	-26.714	0.100
33.700	-36.349	0.100
33.800	-26.234	0.100
33.900	-27.544	0.100
34.000	-27.338	0.100
34.100	-30.365	0.100
34.200	-18.869	0.100
34.300	-35.882	0.100
34.400	-41.793	0.100
34.500	-23.366	0.100
34.600	-17.844	0.100
34.700	-31.314	0.100
34.800	-39.214	0.100
34.900	-24.827	0.100
35.000	-25.128	0.100
35.100	-34.919	0.100
35.200	-28.065	0.100
35.300	-15.184	0.100
35.400	-30.425	0.100
35.500	-29.079	0.100
35.600	-31.307	0.100
35.700	-32.582	0.100
35.800	-37.539	0.100
35.900	-15.857	0.100
36.000	-23.797	0.100
36.100	-33.554	0.100
36.200	-31.097	0.100
36.300	-29.068	0.100
36.400	-18.567	0.100
36.500	-35.612	0.100
36.600	-24.625	0.100
36.700	-21.681	0.100
36.800	-28.140	0.100
36.900	-38.742	0.100
37.000	-26.558	0.100
37.100	-27.543	0.100
37.200	-17.838	0.100
37.300	-20.315	0.100
37.400	-16.798	0.100
37.500	-33.179	0.100
37.600	-28.204	0.100
37.700	-23.453	0.100
37.800	-21.115	0.100
37.900	-23.396	0.100
38.000	-21.808	0.100
38.100	-28.428	0.100
38.200	-41.304	0.100
38.300	-33.986	0.100
38.400	-16.999	0.100
38.500	-29.261	0.100
38.600	-19.215	0.100
38.700	-30.118	0.100
38.800	-33.511	0.100
38.900	-28.240	0.100
39.000	-23.578	0.100
39.100	-18.473	0.100
39.200	-28.069	0.100
39.300	-35.243	0.100
39.400	-25.773	0.100
39.500	-25.178	0.100
39.600	-25.243	0.100
39.700	-17.869	0.100
39.800	-36.617	0.100
39.900	-30.601	0.100
40.000	-32.984	0.100
40.100	-20.896	0.100
40.200	-32.908	0.100
40.300	-30.864	0.100
40.400	-26.415	0.100
40.500	-21.174	0.100
40.600	-33.703	0.100
40.700	-18.024	0.100
40.800	-20.824	0.100
40.900	-15.837	0.100
41.000	-29.372	0.100
41.100	-24.811	0.100
41.200	-23.808	0.100
41.300	-24.562	0.100
41.400	-18.292	0.100
41.500	-28.198	0.100
41.600	-14.482	0.100
41.700	-18.713	0.100
41.800	-28.788	0.100
41.900	-22.413	0.100
42.000	-24.383	0.100
42.100	-21.092	0.100
42.200	-26.990	0.100
42.300	-17.696	0.100
42.400	-20.756	0.100
42.500	-18.203	0.100
42.600	-28.188	0.100
42.700	-26.402	0.100
42.800	-17.181	0.100
42.900	-24.693	0.100
43.000	-20.205	0.100
43.100	-23.582	0.100
43.200	-26.194	0.100
43.300	-13.324	0.100
43.400	-29.861	0.100
43.500	-18.838	0.100
43.600	-19.426	0.100
43.700	-24.884	0.100
43.800	-30.812	0.100
43.900	-34.861	0.100
44.000	-25.073	0.100
44.100	-23.515	0.100
44.200	-24.331	0.100
44.300	-18.473	0.100
44.400	-18.094	0.100
44.500	-18.245	0.100
44.600	-29.514	0.100
44.700	-30.131	0.100
44.800	-16.416	0.100
44.900	-29.127	0.100
45.000	-37.981	0.100
45.100	-26.172	0.100
45.200	-28.508	0.100
45.300	-22.093	0.100
45.400	-28.578	0.100
45.500	-17.913	0.100
45.600	-20.630	0.100
45.700	-27.138	0.100
45.800	-8.806	0.100
45.900	-23.908	0.100
46.000	-19.991	0.100
46.100	-14.226	0.100
46.200	-14.067	0.100
46.300	-29.429	0.100
46.400	-25.687	0.100
46.500	-26.744	0.100
46.600	-23.290	0.100
46.700	-24.683	0.100
46.800	-21.870	0.100
46.900	-30.966	0.100
47.000	-23.283	0.100
47.100	-20.547	0.100
47.200	-18.126	0.100
47.300	-29.922	0.100
47.400	-22.894	0.100
47.500	-13.455	0.100
47.600	-23.563	0.100
47.700	-14.682	0.100
47.800	-22.750	0.100
47.900	-14.193	0.100
48.000	-24.138	0.100
48.100	-24.521	0.100
48.200	-27.355	0.100
48.300	-14.669	0.100
48.400	-18.860	0.100
48.500	-19.040	0.100
48.600	-33.905	0.100
48.700	-20.042	0.100
48.800	-25.322	0.100
48.900	-14.421	0.100
49.000	-23.701	0.100
49.100	-18.634	0.100
49.200	-19.864	0.100
49.300	-21.117	0.100
49.400	-19.249	0.100
49.500	-25.814	0.100
49.600	-24.351	0.100
49.700	-19.480	0.100
49.800	-15.566	0.100
49.900	-23.051	0.100
50.000	-25.949	0.100
50.100	-17.901	0.100
50.200	-25.866	0.100
50.300	-25.913	0.100
50.400	-21.531	0.100
50.500	-21.913	0.100
50.600	-17.550	0.100
50.700	-19.353	0.100
50.800	-28.952	0.100
50.900	-12.395	0.100
51.000	-9.391	0.100
51.100	-13.499	0.100
51.200	-26.711	0.100
51.300	-23.873	0.100
51.400	-22.362	0.100
51.500	-5.102	0.100
51.600	-14.887	0.100
51.700	-16.209	0.100
51.800	-18.821	0.100
51.900	-22.299	0.100
52.000	-17.250	0.100
52.100	-24.511	0.100
52.200	-14.513	0.100
52.300	-20.438	0.100
52.400	-23.070	0.100
52.500	-19.116	0.100
52.600	-17.571	0.100
52.700	-18.891	0.100
52.800	-26.629	0.100
52.900	-12.943	0.100
53.000	-14.080	0.100
53.100	-14.717	0.100
53.200	-14.707	0.100
53.300	-14.636	0.100
53.400	-18.801	0.100
53.500	-21.662	0.100
53.600	-11.047	0.100
53.700	-17.289	0.100
53.800	-16.591	0.100
53.900	-17.176	0.100
54.000	-17.856	0.100
54.100	-15.033	0.100
54.200	-18.563	0.100
54.300	-17.733	0.100
54.400	-18.333	0.100
54.500	-7.409	0.100
54.600	-23.068	0.100
54.700	-5.206	0.100
54.800	-18.716	0.100
54.900	-16.147	0.100
55.000	-19.561	0.100
55.100	-6.431	0.100
55.200	-15.380	0.100
55.300	-21.370	0.100
55.400	-13.605	0.100
55.500	-8.992	0.100
55.600	-10.114	0.100
55.700	-20.034	0.100
55.800	-19.121	0.100
55.900	-22.899	0.100
56.000	-15.665	0.100
56.100	-13.103	0.100
56.200	-15.334	0.100
56.300	-16.777	0.100
56.400	-12.668	0.100
56.500	-17.977	0.100
56.600	-17.433	0.100
56.700	-7.916	0.100
56.800	-18.968	0.100
56.900	-16.362	0.100
57.000	-21.097	0.100
57.100	-19.689	0.100
57.200	-26.279	0.100
57.300	-10.765	0.100
57.400	-14.103	0.100
57.500	-15.164	0.100
57.600	-14.752	0.100
57.700	-22.844	0.100
57.800	-12.939	0.100
57.900	-13.903	0.100
58.000	-14.386	0.100
58.100	-15.791	0.100
58.200	-17.429	0.100
58.300	-14.369	0.100
58.400	-11.890	0.100
58.500	-24.372	0.100
58.600	-12.161	0.100
58.700	-19.789	0.100
58.800	-21.645	0.100
58.900	-11.216	0.100
59.000	-29.217	0.100
59.100	-19.597	0.100
59.200	-14.284	0.100
59.300	-23.658	0.100
59.400	-24.498	0.100
59.500	-14.795	0.100
59.600	-12.587	0.100
59.700	-19.654	0.100
59.800	-20.231	0.100
59.900	-17.662	0.100
60.000	-14.350	0.100
60.100	-12.441	0.100
60.200	-18.675	0.100
60.300	-8.040	0.100
60.400	-4.819	0.100
60.500	-22.134	0.100
60.600	-28.399	0.100
60.700	-28.353	0.100
60.800	-16.822	0.100
60.900	-6.310	0.100
61.000	-21.895	0.100
61.100	-16.797	0.100
61.200	-18.134	0.100
61.300	-14.370	0.100
61.400	-15.275	0.100
61.500	-17.472	0.100
61.600	-18.350	0.100
61.700	-18.183	0.100
61.800	-14.496	0.100
61.900	-15.083	0.100
62.000	-0.394	0.100
62.100	-18.652	0.100
62.200	-12.409	0.100
62.300	-19.408	0.100
62.400	-12.151	0.100
62.500	-16.395	0.100
62.600	-14.376	0.100
62.700	-21.383	0.100
62.800	-4.744	0.100
62.900	-26.001	0.100
63.000	-17.223	0.100
63.100	-16.520	0.100
63.200	-10.500	0.100
63.300	-9.719	0.100
63.400	-14.849	0.100
63.500	-17.684	0.100
63.600	-13.899	0.100
63.700	-14.120	0.100
63.800	-19.481	0.100
63.900	-7.243	0.100
64.000	-12.752	0.100
64.100	-22.039	0.100
64.200	-26.222	0.100
64.300	-11.780	0.100
64.400	-11.403	0.100
64.500	-12.629	0.100
64.600	-16.088	0.100
64.700	-11.951	0.100
64.800	-16.250	0.100
64.900	-12.172	0.100
65.000	-8.302	0.100
65.100	-5.258	0.100
65.200	-3.021	0.100
65.300	-15.682	0.100
65.400	-12.805	0.100
65.500	-10.284	0.100
65.600	-9.517	0.100
65.700	-16.664	0.100
65.800	-14.939	0.100
65.900	-17.100	0.100
66.000	-24.180	0.100
66.100	-18.241	0.100
66.200	-12.788	0.100
66.300	-8.589	0.100
66.400	-16.349	0.100
66.500	-14.136	0.100
66.600	-15.109	0.100
66.700	-15.359	0.100
66.800	-15.700	0.100
66.900	-18.877	0.100
67.000	-22.960	0.100
67.100	2.921	0.100
67.200	-10.497	0.100
67.300	-10.556	0.100
67.400	-3.850	0.100
67.500	-18.281	0.100
67.600	-19.879	0.100
67.700	-12.893	0.100
67.800	-23.572	0.100
67.900	-12.855	0.100
68.000	-6.637	0.100
68.100	-10.792	0.100
68.200	-8.788	0.100
68.300	-9.888	0.100
68.400	-12.938	0.100
68.500	-9.199	0.100
68.600	-23.121	0.100
68.700	-14.894	0.100
68.800	-22.704	0.100
68.900	-11.781	0.100
69.000	-3.766	0.100
69.100	-15.830	0.100
69.200	-10.871	0.100
69.300	-11.906	0.100
69.400	-16.183	0.100
69.500	-5.594	0.100
69.600	-9.601	0.100
69.700	-18.847	0.100
69.800	-27.411	0.100
69.900	-15.888	0.100
70.000	-11.396	0.100
70.100	-19.066	0.100
70.200	-10.097	0.100
70.300	-12.760	0.100
70.400	-15.743	0.100
70.500	-6.924	0.100
70.600	-14.084	0.100
70.700	-6.617	0.100
70.800	-21.401	0.100
70.900	-6.448	0.100
71.000	-9.076	0.100
71.100	-7.247	0.100
71.200	-7.605	0.100
71.300	-14.713	0.100
71.400	-12.968	0.100
71.500	-9.629	0.100
71.600	-9.617	0.100
71.700	-11.499	0.100
71.800	-11.912	0.100
71.900	-8.078	0.100
72.000	-14.749	0.100
72.100	-13.894	0.100
72.200	-16.431	0.100
72.300	-14.421	0.100
72.400	-18.500	0.100
72.500	-13.928	0.100
72.600	-6.954	0.100
72.700	-14.208	0.100
72.800	-11.267	0.100
72.900	-15.999	0.100
73.000	-4.639	0.100
73.100	-10.005	0.100
73.200	-7.981	0.100
73.300	-18.870	0.100
73.400	-15.256	0.100
73.500	-21.255	0.100
73.600	-23.138	0.100
73.700	-19.288	0.100
73.800	-10.684	0.100
73.900	-13.188	0.100
74.000	-17.303	0.100
74.100	-12.843	0.100
74.200	-7.541	0.100
74.300	-13.094	0.100
74.400	-12.821	0.100
74.500	-22.290	0.100
74.600	-19.147	0.100
74.700	-28.161	0.100
74.800	-8.632	0.100
74.900	-18.728	0.100
75.000	-26.161	0.100
75.100	-5.210	0.100
75.200	-5.098	0.100
75.300	-14.286	0.100
75.400	-16.346	0.100
75.500	-22.768	0.100
75.600	-16.275	0.100
75.700	-17.067	0.100
75.800	-10.524	0.100
75.900	-9.416	0.100
76.000	-20.845	0.100
76.100	-11.206	0.100
76.200	-14.173	0.100
76.300	-4.797	0.100
76.400	-6.832	0.100
76.500	-13.902	0.100
76.600	-16.624	0.100
76.700	-19.489	0.100
76.800	-16.030	0.100
76.900	-12.208	0.100
77.000	-7.994	0.100
77.100	-19.496	0.100
77.200	-17.540	0.100
77.300	-4.379	0.100
77.400	-28.984	0.100
77.500	-15.846	0.100
77.600	-12.245	0.100
77.700	-13.177	0.100
77.800	-11.541	0.100
77.900	-21.435	0.100
78.000	-7.242	0.100
78.100	-14.531	0.100
78.200	-4.945	0.100
78.300	-13.875	0.100
78.400	-10.513	0.100
78.500	-11.024	0.100
78.600	-19.905	0.100
78.700	-15.322	0.100
78.800	-7.945	0.100
78.900	-7.952	0.100
79.000	-2.378	0.100
79.100	-15.807	0.100
79.200	-19.572	0.100
79.300	-13.690	0.100
79.400	-18.974	0.100
79.500	-10.413	0.100
79.600	-6.174	0.100
79.700	-14.571	0.100
79.800	-21.343	0.100
79.900	-5.361	0.100
80.000	-12.200	0.100
80.100	-6.415	0.100
80.200	-15.563	0.100
80.300	-2.286	0.100
80.400	-16.761	0.100
80.500	-13.873	0.100
80.600	-17.939	0.100
80.700	-9.166	0.100
80.800	-15.902	0.100
80.900	-10.695	0.100
81.000	-10.535	0.100
81.100	-6.601	0.100
81.200	-13.493	0.100
81.300	-17.999	0.100
81.400	-12.921	0.100
81.500	-11.771	0.100
81.600	-15.077	0.100
81.700	-10.005	0.100
81.800	-14.139	0.100
81.900	-17.803	0.100
82.000	-12.761	0.100
82.100	-13.244	0.100
82.200	-10.506	0.100
82.300	-16.667	0.100
82.400	-18.092	0.100
82.500	-14.583	0.100
82.600	-24.386	0.100
82.700	-17.534	0.100
82.800	-5.395	0.100
82.900	-16.235	0.100
83.000	-12.723	0.100
83.100	-7.407	0.100
83.200	-17.917	0.100
83.300	-22.090	0.100
83.400	-6.987	0.100
83.500	-13.356	0.100
83.600	-11.698	0.100
83.700	-17.347	0.100
83.800	-20.892	0.100
83.900	-10.570	0.100
84.000	-13.352	0.100
84.100	-17.177	0.100
84.200	-11.217	0.100
84.300	-5.381	0.100
84.400	-17.477	0.100
84.500	-14.483	0.100
84.600	-9.316	0.100
84.700	-6.541	0.100
84.800	-23.615	0.100
84.900	-13.819	0.100
85.000	-8.365	0.100
85.100	-13.064	0.100
85.200	-18.384	0.100
85.300	-9.950	0.100
85.400	-0.553	0.100
85.500	-13.013	0.100
85.600	-9.929	0.100
85.700	-10.493	0.100
85.800	-11.299	0.100
85.900	-14.817	0.100
86.000	-15.946	0.100
86.100	-12.955	0.100
86.200	-8.071	0.100
86.300	-7.385	0.100
86.400	-7.899	0.100
86.500	-14.026	0.100
86.600	-13.519	0.100
86.700	-1.859	0.100
86.800	-15.904	0.100
86.900	-7.864	0.100
87.000	-7.937	0.100
87.100	-15.167	0.100
87.200	-5.140	0.100
87.300	-9.467	0.100
87.400	-8.988	0.100
87.500	-9.629	0.100
87.600	-9.928	0.100
87.700	-10.091	0.100
87.800	-15.941	0.100
87.900	-21.187	0.100
88.000	-11.507	0.100
88.100	-19.274	0.100
88.200	-14.778	0.100
88.300	-8.118	0.100
88.400	-7.103	0.100
88.500	-9.513	0.100
88.600	-21.058	0.100
88.700	-5.131	0.100
88.800	-10.544	0.100
88.900	-15.303	0.100
89.000	-10.750	0.100
89.100	-17.263	0.100
89.200	-16.750	0.100
89.300	-7.386	0.100
89.400	-10.971	0.100
89.500	-11.884	0.100
89.600	-11.375	0.100
89.700	-10.501	0.100
89.800	-11.139	0.100
89.900	-9.662	0.100
90.000	-2.992	0.100
90.100	-13.022	0.100
90.200	-14.222	0.100
90.300	-14.551	0.100
90.400	-9.260	0.100
90.500	-9.132	0.100
90.600	-12.327	0.100
90.700	-10.493	0.100
90.800	-14.652	0.100
90.900	-4.232	0.100
91.000	-10.264	0.100
91.100	-5.722	0.100
91.200	-7.989	0.100
91.300	-15.755	0.100
91.400	-10.428	0.100
91.500	-3.307	0.100
91.600	-18.193	0.100
91.700	-11.147	0.100
91.800	-4.802	0.100
91.900	-14.334	0.100
92.000	-9.290	0.100
92.100	-16.536	0.100
92.200	-18.497	0.100
92.300	-6.891	0.100
92.400	-12.090	0.100
92.500	-20.815	0.100
92.600	-8.163	0.100
92.700	-18.404	0.100
92.800	-14.578	0.100
92.900	-14.729	0.100
93.000	-14.764	0.100
93.100	-15.074	0.100
93.200	-8.308	0.100
93.300	-7.551	0.100
93.400	-14.911	0.100
93.500	-19.358	0.100
93.600	-2.914	0.100
93.700	-5.409	0.100
93.800	1.696	0.100
93.900	-15.489	0.100
94.000	-8.547	0.100
94.100	-13.102	0.100
94.200	-20.915	0.100
94.300	-6.994	0.100
94.400	-7.288	0.100
94.500	-16.404	0.100
94.600	-17.217	0.100
94.700	-13.373	0.100
94.800	-15.296	0.100
94.900	-9.990	0.100
95.000	-16.679	0.100
95.100	-10.295	0.100
95.200	-9.978	0.100
95.300	-6.005	0.100
95.400	-5.800	0.100
95.500	-7.986	0.100
95.600	-9.070	0.100
95.700	-8.784	0.100
95.800	-12.285	0.100
95.900	-13.294	0.100
96.000	-2.249	0.100
96.100	-15.276	0.100
96.200	-12.636	0.100
96.300	-14.404	0.100
96.400	-11.580	0.100
96.500	-10.711	0.100
96.600	-7.048	0.100
96.700	-14.827	0.100
96.800	1.404	0.100
96.900	-18.259	0.100
97.000	-12.854	0.100
97.100	-12.388	0.100
97.200	-20.031	0.100
97.300	-11.220	0.100
97.400	-4.712	0.100
97.500	-0.051	0.100
97.600	-13.864	0.100
97.700	-22.809	0.100
97.800	-1.524	0.100
97.900	-1.258	0.100
98.000	-19.608	0.100
98.100	-11.858	0.100
98.200	-17.025	0.100
98.300	-9.243	0.100
98.400	-10.961	0.100
98.500	-7.577	0.100
98.600	-8.875	0.100
98.700	-14.797	0.100
98.800	-8.199	0.100
98.900	-10.680	0.100
99.000	-6.130	0.100
99.100	-11.789	0.100
99.200	-17.842	0.100
99.300	-13.227	0.100
99.400	-3.909	0.100
99.500	3.979	0.100
99.600	-8.730	0.100
99.700	-8.979	0.100
99.800	-17.982	0.100
99.900	-14.467	0.100
100.000	-16.277	0.100
100.100	-22.488	0.100
100.200	-29.609	0.100
100.300	-14.216	0.100
100.400	-5.172	0.100
100.500	-18.335	0.100
100.600	-1.702	0.100
100.700	-16.442	0.100
100.800	-5.851	0.100
100.900	-16.553	0.100
101.000	-22.957	0.100
101.100	-12.578	0.100
101.200	-16.744	0.100
101.300	-12.620	0.100
101.400	-10.033	0.100
101.500	-15.221	0.100
101.600	-7.056	0.100
101.700	-13.561	0.100
101.800	-13.733	0.100
101.900	-12.537	0.100
102.000	-8.642	0.100
102.100	0.664	0.100
102.200	-22.276	0.100
102.300	-11.041	0.100
102.400	-10.781	0.100
102.500	-21.706	0.100
102.600	-11.169	0.100
102.700	-16.299	0.100
102.800	-20.070	0.100
102.900	-12.513	0.100
103.000	-10.411	0.100
103.100	3.115	0.100
103.200	-13.402	0.100
103.300	-19.284	0.100
103.400	-16.992	0.100
103.500	-4.983	0.100
103.600	-13.456	0.100
103.700	-20.360	0.100
103.800	-12.410	0.100
103.900	-10.982	0.100
104.000	-9.414	0.100
104.100	-12.558	0.100
104.200	-15.296	0.100
104.300	-10.429	0.100
104.400	-4.472	0.100
104.500	-20.789	0.100
104.600	-20.903	0.100
104.700	-10.576	0.100
104.800	-8.553	0.100
104.900	-9.496	0.100
105.000	-8.805	0.100
105.100	-13.552	0.100
105.200	-24.398	0.100
105.300	-17.544	0.100
105.400	-2.998	0.100
105.500	-14.531	0.100
105.600	-6.903	0.100
105.700	-11.108	0.100
105.800	-16.032	0.100
105.900	-3.810	0.100
106.000	-25.640	0.100
106.100	-7.152	0.100
106.200	-15.507	0.100
106.300	-18.832	0.100
106.400	-4.453	0.100
106.500	-20.021	0.100
106.600	-12.943	0.100
106.700	-16.149	0.100
106.800	-6.385	0.100
106.900	-13.330	0.100
107.000	-14.214	0.100
107.100	-15.600	0.100
107.200	-6.867	0.100
107.300	-12.585	0.100
107.400	-9.155	0.100
107.500	-15.919	0.100
107.600	-13.395	0.100
107.700	-8.437	0.100
107.800	-12.798	0.100
107.900	-13.411	0.100
108.000	-13.303	0.100
108.100	-11.056	0.100
108.200	-7.537	0.100
108.300	-4.390	0.100
108.400	-5.549	0.100
108.500	-9.528	0.100
108.600	-11.986	0.100
108.700	-11.334	0.100
108.800	-6.493	0.100
108.900	-26.114	0.100
109.000	-5.838	0.100
109.100	-23.471	0.100
109.200	-8.817	0.100
109.300	-5.205	0.100
109.400	-17.218	0.100
109.500	-5.498	0.100
109.600	-17.414	0.100
109.700	-10.399	0.100
109.800	-9.001	0.100
109.900	-14.678	0.100
110.000	-9.491	0.100
110.100	-9.022	0.100
110.200	-13.800	0.100
110.300	-13.774	0.100
110.400	-4.085	0.100
110.500	-15.230	0.100
110.600	-10.662	0.100
110.700	-3.611	0.100
110.800	-14.856	0.100
110.900	-13.975	0.100
111.000	-8.107	0.100
111.100	-10.471	0.100
111.200	-17.779	0.100
111.300	-12.441	0.100
111.400	-19.042	0.100
111.500	-8.442	0.100
111.600	0.081	0.100
111.700	-5.869	0.100
111.800	-6.833	0.100
111.900	-12.114	0.100
112.000	-25.007	0.100
112.100	-10.990	0.100
112.200	-8.333	0.100
112.300	-4.850	0.100
112.400	-14.480	0.100
112.500	-13.923	0.100
112.600	-13.296	0.100
112.700	0.136	0.100
112.800	-11.039	0.100
112.900	-14.956	0.100
113.000	-16.102	0.100
113.100	-10.732	0.100
113.200	-3.711	0.100
113.300	-14.921	0.100
113.400	-15.244	0.100
113.500	-11.832	0.100
113.600	-13.326	0.100
113.700	-10.438	0.100
113.800	-24.810	0.100
113.900	-9.163	0.100
114.000	-7.097	0.100
114.100	-13.175	0.100
114.200	-9.270	0.100
114.300	-7.114	0.100
114.400	-11.923	0.100
114.500	-12.424	0.100
114.600	-7.734	0.100
114.700	-13.687	0.100
114.800	-18.491	0.100
114.900	-13.434	0.100
115.000	-10.163	0.100
115.100	-0.366	0.100
115.200	-9.556	0.100
115.300	-10.822	0.100
115.400	-18.682	0.100
115.500	-4.147	0.100
115.600	-4.379	0.100
115.700	-14.637	0.100
115.800	-11.572	0.100
115.900	-9.186	0.100
116.000	-13.747	0.100
116.100	-8.651	0.100
116.200	-15.719	0.100
116.300	-16.347	0.100
116.400	-10.337	0.100
116.500	-8.194	0.100
116.600	-9.479	0.100
116.700	-20.598	0.100
116.800	-16.734	0.100
116.900	-12.626	0.100
117.000	-4.650	0.100
117.100	-9.706	0.100
117.200	-9.014	0.100
117.300	-25.884	0.100
117.400	-10.665	0.100
117.500	-14.119	0.100
117.600	-17.610	0.100
117.700	-14.511	0.100
117.800	-8.429	0.100
117.900	-11.891	0.100
118.000	-18.549	0.100
118.100	-6.363	0.100
118.200	-7.609	0.100
118.300	-10.716	0.100
118.400	-16.320	0.100
118.500	-8.153	0.100
118.600	-17.988	0.100
118.700	-7.841	0.100
118.800	-0.505	0.100
118.900	-11.981	0.100
119.000	-21.394	0.100
119.100	-10.144	0.100
119.200	-5.424	0.100
119.300	-1.409	0.100
119.400	-12.496	0.100
119.500	-15.126	0.100
119.600	-16.281	0.100
119.700	-20.997	0.100
119.800	-12.242	0.100
119.900	-10.550	0.100
120.000	-14.611	0.100
120.100	-16.248	0.100
120.200	-12.527	0.100
120.300	-13.520	0.100
120.400	-5.458	0.100
120.500	-11.477	0.100
120.600	-9.299	0.100
120.700	-16.860	0.100
120.800	-18.241	0.100
120.900	-8.313	0.100
121.000	-16.072	0.100
121.100	-12.283	0.100
121.200	-5.062	0.100
121.300	-6.699	0.100
121.400	-19.439	0.100
121.500	-9.314	0.100
121.600	-15.034	0.100
121.700	-8.155	0.100
121.800	-18.772	0.100
121.900	-3.686	0.100
122.000	-17.489	0.100
122.100	-14.572	0.100
122.200	0.441	0.100
122.300	-6.436	0.100
122.400	-19.145	0.100
122.500	-14.695	0.100
122.600	-13.244	0.100
122.700	-22.761	0.100
122.800	-15.584	0.100
122.900	-4.601	0.100
123.000	-7.639	0.100
123.100	-6.553	0.100
123.200	-11.763	0.100
123.300	-5.336	0.100
123.400	-5.860	0.100
123.500	-12.288	0.100
123.600	-25.074	0.100
123.700	-16.329	0.100
123.800	-10.619	0.100
123.900	-10.384	0.100
124.000	-15.832	0.100
124.100	-13.388	0.100
124.200	-17.222	0.100
124.300	-14.057	0.100
124.400	-12.811	0.100
124.500	-10.674	0.100
124.600	-9.749	0.100
124.700	-2.565	0.100
124.800	-16.374	0.100
124.900	-15.085	0.100
125.000	-11.884	0.100
125.100	-4.352	0.100
125.200	-14.308	0.100
125.300	-0.377	0.100
125.400	1.228	0.100
125.500	-18.324	0.100
125.600	-18.158	0.100
125.700	-5.061	0.100
125.800	-14.298	0.100
125.900	-19.297	0.100
126.000	-12.981	0.100
126.100	-15.725	0.100
126.200	-12.210	0.100
126.300	-9.284	0.100
126.400	-21.099	0.100
126.500	-4.452	0.100
126.600	-9.097	0.100
126.700	-12.020	0.100
126.800	-6.468	0.100
126.900	-7.316	0.100
127.000	-8.307	0.100
127.100	-8.620	0.100
127.200	-11.581	0.100
127.300	-17.093	0.100
127.400	-8.157	0.100
127.500	-13.730	0.100
127.600	-5.968	0.100
127.700	-1.515	0.100
127.800	-19.987	0.100
127.900	-12.022	0.100
128.000	-13.670	0.100
128.100	-7.500	0.100
128.200	-6.267	0.100
128.300	-3.570	0.100
128.400	-17.660	0.100
128.500	-13.316	0.100
128.600	-5.679	0.100
128.700	-19.223	0.100
128.800	-18.053	0.100
128.900	-13.052	0.100
129.000	-7.475	0.100
129.100	-16.044	0.100
129.200	-7.713	0.100
129.300	-18.405	0.100
129.400	-14.358	0.100
129.500	-17.040	0.100
129.600	-7.496	0.100
129.700	-9.929	0.100
129.800	-12.335	0.100
129.900	-10.495	0.100
130.000	-14.572	0.100
130.100	-9.667	0.100
130.200	-11.646	0.100
130.300	-0.996	0.100
130.400	-9.612	0.100
130.500	-18.485	0.100
130.600	-17.249	0.100
130.700	-12.960	0.100
130.800	-12.535	0.100
130.900	-6.111	0.100
131.000	-0.366	0.100
131.100	-5.077	0.100
131.200	-10.793	0.100
131.300	-17.268	0.100
131.400	-15.018	0.100
131.500	-14.942	0.100
131.600	-13.531	0.100
131.700	-3.398	0.100
131.800	-9.995	0.100
131.900	-9.979	0.100
132.000	-12.462	0.100
132.100	-6.828	0.100
132.200	-10.195	0.100
132.300	-19.467	0.100
132.400	-5.227	0.100
132.500	-6.329	0.100
132.600	-11.249	0.100
132.700	-7.788	0.100
132.800	-7.076	0.100
132.900	-15.185	0.100
133.000	-13.709	0.100
133.100	-10.794	0.100
133.200	-3.183	0.100
133.300	-11.941	0.100
133.400	-15.521	0.100
133.500	-5.144	0.100
133.600	-11.505	0.100
133.700	-9.308	0.100
133.800	-19.315	0.100
133.900	-12.441	0.100
134.000	-11.363	0.100
134.100	-6.068	0.100
134.200	-17.358	0.100
134.300	-13.506	0.100
134.400	-17.505	0.100
134.500	-13.229	0.100
134.600	-2.981	0.100
134.700	-0.852	0.100
134.800	-18.061	0.100
134.900	-6.404	0.100
135.000	-6.776	0.100
135.100	-11.365	0.100
135.200	-17.625	0.100
135.300	-5.680	0.100
135.400	-1.535	0.100
135.500	-16.579	0.100
135.600	-5.662	0.100
135.700	-3.905	0.100
135.800	-12.579	0.100
135.900	-5.176	0.100
136.000	-11.503	0.100
136.100	-10.266	0.100
136.200	-7.314	0.100
136.300	-19.760	0.100
136.400	-11.424	0.100
136.500	-12.358	0.100
136.600	-8.331	0.100
136.700	-5.822	0.100
136.800	-12.676	0.100
136.900	-21.642	0.100
137.000	-22.591	0.100
137.100	-11.475	0.100
137.200	-12.186	0.100
137.300	-19.978	0.100
137.400	-11.313	0.100
137.500	-9.007	0.100
137.600	-7.684	0.100
137.700	-18.946	0.100
137.800	-1.161	0.100
137.900	-3.943	0.100
138.000	-2.090	0.100
138.100	-8.381	0.100
138.200	-25.692	0.100
138.300	-13.975	0.100
138.400	-5.673	0.100
138.500	-7.417	0.100
138.600	-17.801	0.100
138.700	-17.214	0.100
138.800	-12.695	0.100
138.900	-16.694	0.100
139.000	-15.321	0.100
139.100	0.205	0.100
139.200	-6.565	0.100
139.300	-8.925	0.100
139.400	-1.960	0.100
139.500	-17.817	0.100
139.600	-3.833	0.100
139.700	-14.072	0.100
139.800	-21.305	0.100
139.900	-8.731	0.100
140.000	-11.451	0.100
140.100	-5.905	0.100
140.200	-15.858	0.100
140.300	-10.673	0.100
140.400	-12.986	0.100
140.500	-13.692	0.100
140.600	-13.558	0.100
140.700	-12.234	0.100
140.800	-16.176	0.100
140.900	-17.945	0.100
141.000	-1.996	0.100
141.100	-6.059	0.100
141.200	-12.347	0.100
141.300	-14.257	0.100
141.400	-9.658	0.100
141.500	3.645	0.100
141.600	-6.263	0.100
141.700	-11.785	0.100
141.800	-9.859	0.100
141.900	-15.151	0.100
142.000	-13.851	0.100
142.100	-8.601	0.100
142.200	-11.111	0.100
142.300	-15.743	0.100
142.400	-19.525	0.100
142.500	-8.706	0.100
142.600	-5.129	0.100
142.700	1.969	0.100
142.800	-13.906	0.100
142.900	-12.487	0.100
143.000	-13.671	0.100
143.100	-10.821	0.100
143.200	-7.609	0.100
143.300	-12.459	0.100
143.400	-7.621	0.100
143.500	-9.150	0.100
143.600	-10.844	0.100
143.700	-16.089	0.100
143.800	-9.252	0.100
143.900	-1.816	0.100
144.000	-9.069	0.100
144.100	-9.665	0.100
144.200	-4.716	0.100
144.300	-24.043	0.100
144.400	-21.784	0.100
144.500	-9.051	0.100
144.600	-18.190	0.100
144.700	-6.178	0.100
144.800	-18.369	0.100
144.900	-0.197	0.100
145.000	-9.493	0.100
145.100	-13.000	0.100
145.200	-10.168	0.100
145.300	-19.312	0.100
145.400	-12.592	0.100
145.500	-7.492	0.100
145.600	-22.746	0.100
145.700	-5.531	0.100
145.800	-4.977	0.100
145.900	-1.441	0.100
146.000	-7.340	0.100
146.100	-12.735	0.100
146.200	-12.238	0.100
146.300	-13.069	0.100
146.400	-9.845	0.100
146.500	-8.722	0.100
146.600	-13.769	0.100
146.700	-7.324	0.100
146.800	-10.180	0.100
146.900	-4.707	0.100
147.000	-12.372	0.100
147.100	-9.303	0.100
147.200	-12.178	0.100
147.300	-10.811	0.100
147.400	-3.337	0.100
147.500	-14.448	0.100
147.600	-25.392	0.100
147.700	-8.209	0.100
147.800	-2.022	0.100
147.900	-11.115	0.100
148.000	-14.146	0.100
148.100	-19.089	0.100
148.200	-8.309	0.100
148.300	-9.396	0.100
148.400	-1.898	0.100
148.500	-13.396	0.100
148.600	-16.027	0.100
148.700	-12.626	0.100
148.800	-0.719	0.100
148.900	-7.006	0.100
149.000	-9.011	0.100
149.100	-15.907	0.100
149.200	-12.029	0.100
149.300	-4.132	0.100
149.400	-13.377	0.100
149.500	-9.614	0.100
149.600	-6.847	0.100
149.700	-9.760	0.100
149.800	-18.051	0.100
149.900	-15.161	0.100
150.000	-2.804	0.100
150.100	-21.904	0.100
150.200	-14.906	0.100
150.300	-1.837	0.100
150.400	-22.383	0.100
150.500	-8.970	0.100
150.600	-3.212	0.100
150.700	-8.802	0.100
150.800	-12.825	0.100
150.900	-7.815	0.100
151.000	-3.667	0.100
151.100	-10.240	0.100
151.200	-13.657	0.100
151.300	-10.430	0.100
151.400	-18.023	0.100
151.500	-7.969	0.100
151.600	-5.898	0.100
151.700	-7.225	0.100
151.800	-8.584	0.100
151.900	-5.174	0.100
152.000	-8.522	0.100
152.100	-13.788	0.100
152.200	-16.336	0.100
152.300	-10.557	0.100
152.400	-18.776	0.100
152.500	-5.969	0.100
152.600	-16.435	0.100
152.700	-3.939	0.100
152.800	-10.107	0.100
152.900	-15.156	0.100
153.000	-14.575	0.100
153.100	-13.833	0.100
153.200	-17.868	0.100
153.300	-9.984	0.100
153.400	-2.628	0.100
153.500	-0.091	0.100
153.600	-14.576	0.100
153.700	-15.864	0.100
153.800	0.352	0.100
153.900	-6.010	0.100
154.000	-19.552	0.100
154.100	-11.155	0.100
154.200	-9.338	0.100
154.300	-10.639	0.100
154.400	-7.769	0.100
154.500	-13.832	0.100
154.600	-15.598	0.100
154.700	-9.966	0.100
154.800	-4.626	0.100
154.900	-11.417	0.100
155.000	-2.786	0.100
155.100	-22.905	0.100
155.200	-11.560	0.100
155.300	-13.589	0.100
155.400	-0.395	0.100
155.500	-9.735	0.100
155.600	-8.444	0.100
155.700	-9.984	0.100
155.800	-13.854	0.100
155.900	-10.841	0.100
156.000	-10.519	0.100
156.100	-4.340	0.100
156.200	-3.660	0.100
156.300	-17.456	0.100
156.400	-9.448	0.100
156.500	-6.132	0.100
156.600	-9.399	0.100
156.700	-9.675	0.100
156.800	-12.753	0.100
156.900	-13.508	0.100
157.000	-9.317	0.100
157.100	-0.197	0.100
157.200	-15.683	0.100
157.300	-5.497	0.100
157.400	-12.527	0.100
157.500	-17.283	0.100
157.600	-11.076	0.100
157.700	-7.741	0.100
157.800	-9.839	0.100
157.900	-4.522	0.100
158.000	-8.794	0.100
158.100	-8.485	0.100
158.200	-16.631	0.100
158.300	0.023	0.100
158.400	-15.331	0.100
158.500	-10.784	0.100
158.600	-15.265	0.100
158.700	-8.697	0.100
158.800	-16.937	0.100
158.900	-3.160	0.100
159.000	-11.582	0.100
159.100	-8.000	0.100
159.200	-12.842	0.100
159.300	-9.941	0.100
159.400	-11.559	0.100
159.500	-11.828	0.100
159.600	-17.912	0.100
159.700	-9.290	0.100
159.800	-11.818	0.100
159.900	-3.156	0.100
160.000	-9.672	0.100
160.100	-12.525	0.100
160.200	-8.104	0.100
160.300	-2.072	0.100
160.400	-2.907	0.100
160.500	-8.861	0.100
160.600	-8.512	0.100
160.700	-4.880	0.100
160.800	-10.215	0.100
160.900	-16.125	0.100
161.000	-3.427	0.100
161.100	-6.328	0.100
161.200	-14.991	0.100
161.300	-16.893	0.100
161.400	-7.314	0.100
161.500	-7.812	0.100
161.600	-8.871	0.100
161.700	-19.583	0.100
161.800	-7.395	0.100
161.900	-11.949	0.100
162.000	-10.753	0.100
162.100	-2.161	0.100
162.200	-14.844	0.100
162.300	-11.462	0.100
162.400	-11.498	0.100
162.500	-11.677	0.100
162.600	-2.770	0.100
162.700	-8.656	0.100
162.800	-9.398	0.100
162.900	-12.621	0.100
163.000	-10.103	0.100
163.100	-11.809	0.100
163.200	-6.409	0.100
163.300	-19.704	0.100
163.400	-6.031	0.100
163.500	-2.473	0.100
163.600	-4.903	0.100
163.700	1.923	0.100
163.800	-4.471	0.100
163.900	-13.762	0.100
164.000	-18.702	0.100
164.100	-8.199	0.100
164.200	-9.897	0.100
164.300	-14.695	0.100
164.400	-16.172	0.100
164.500	-6.931	0.100
164.600	0.463	0.100
164.700	-16.466	0.100
164.800	-4.705	0.100
164.900	-7.043	0.100
165.000	-14.152	0.100
165.100	-11.484	0.100
165.200	-19.123	0.100
165.300	-14.093	0.100
165.400	-5.579	0.100
165.500	-8.181	0.100
165.600	-2.669	0.100
165.700	-15.050	0.100
165.800	-1.519	0.100
165.900	-6.895	0.100
166.000	-8.524	0.100
166.100	-20.110	0.100
166.200	-14.874	0.100
166.300	-5.754	0.100
166.400	-3.539	0.100
166.500	-10.512	0.100
166.600	-9.527	0.100
166.700	-10.451	0.100
166.800	-16.195	0.100
166.900	-0.399	0.100
167.000	-10.055	0.100
167.100	-14.182	0.100
167.200	-9.301	0.100
167.300	-11.392	0.100
167.400	-11.471	0.100
167.500	-21.226	0.100
167.600	-10.744	0.100
167.700	-2.772	0.100
167.800	-2.923	0.100
167.900	-11.346	0.100
168.000	-7.594	0.100
168.100	-13.664	0.100
168.200	-12.824	0.100
168.300	-4.261	0.100
168.400	-8.444	0.100
168.500	-9.763	0.100
168.600	-7.272	0.100
168.700	-4.928	0.100
168.800	-16.485	0.100
168.900	-8.052	0.100
169.000	-12.307	0.100
169.100	-4.127	0.100
169.200	-9.862	0.100
169.300	-15.044	0.100
169.400	-6.204	0.100
169.500	7.596	0.100
169.600	2.558	0.100
169.700	-8.071	0.100
169.800	-22.663	0.100
169.900	-4.353	0.100
170.000	-12.092	0.100
170.100	-6.944	0.100
170.200	-11.958	0.100
170.300	0.428	0.100
170.400	-8.501	0.100
170.500	-12.928	0.100
170.600	-7.793	0.100
170.700	-1.732	0.100
170.800	-7.300	0.100
170.900	-14.953	0.100
171.000	-24.280	0.100
171.100	-20.065	0.100
171.200	-10.949	0.100
171.300	-18.807	0.100
171.400	-6.249	0.100
171.500	-5.806	0.100
171.600	-4.562	0.100
171.700	-13.321	0.100
171.800	-1.163	0.100
171.900	-5.698	0.100
172.000	-11.658	0.100
172.100	-12.788	0.100
172.200	-12.299	0.100
172.300	-2.505	0.100
172.400	-14.735	0.100
172.500	-20.130	0.100
172.600	-11.859	0.100
172.700	-12.329	0.100
172.800	-14.622	0.100
172.900	-7.165	0.100
173.000	-13.300	0.100
173.100	-6.893	0.100
173.200	-14.907	0.100
173.300	-12.834	0.100
173.400	-5.397	0.100
173.500	1.808	0.100
173.600	-14.446	0.100
173.700	-8.815	0.100
173.800	-11.145	0.100
173.900	-8.720	0.100
174.000	-9.714	0.100
174.100	-10.304	0.100
174.200	-13.128	0.100
174.300	-8.395	0.100
174.400	-21.393	0.100
174.500	-12.591	0.100
174.600	-7.686	0.100
174.700	-11.052	0.100
174.800	-6.720	0.100
174.900	-6.112	0.100
175.000	-12.060	0.100
175.100	-3.023	0.100
175.200	-2.742	0.100
175.300	-7.706	0.100
175.400	-6.993	0.100
175.500	-21.452	0.100
175.600	-12.104	0.100
175.700	-8.700	0.100
175.800	-3.931	0.100
175.900	-5.678	0.100
176.000	-21.370	0.100
176.100	-16.254	0.100
176.200	-10.448	0.100
176.300	0.978	0.100
176.400	1.814	0.100
176.500	2.431	0.100
176.600	-12.661	0.100
176.700	-15.481	0.100
176.800	-7.227	0.100
176.900	-13.613	0.100
177.000	-8.929	0.100
177.100	-11.321	0.100
177.200	7.187	0.100
177.300	-7.019	0.100
177.400	-14.450	0.100
177.500	-16.157	0.100
177.600	-5.920	0.100
177.700	-9.578	0.100
177.800	-9.187	0.100
177.900	-11.755	0.100
178.000	-9.492	0.100
178.100	-10.056	0.100
178.200	-5.548	0.100
178.300	-10.752	0.100
178.400	-10.386	0.100
178.500	-11.286	0.100
178.600	-4.540	0.100
178.700	-20.165	0.100
178.800	-4.950	0.100
178.900	-12.930	0.100
179.000	-4.235	0.100
179.100	-1.698	0.100
179.200	-11.680	0.100
179.300	-11.218	0.100
179.400	-8.162	0.100
179.500	-3.854	0.100
179.600	-14.579	0.100
179.700	-16.388	0.100
179.800	-7.788	0.100
179.900	-15.200	0.100
180.000	-18.216	0.100
180.100	-4.188	0.100
180.200	-2.412	0.100
180.300	-4.748	0.100
180.400	-11.189	0.100
180.500	-1.325	0.100
180.600	-16.800	0.100
180.700	-2.114	0.100
180.800	-10.923	0.100
180.900	-8.408	0.100
181.000	-15.640	0.100
181.100	-23.483	0.100
181.200	-5.305	0.100
181.300	-9.814	0.100
181.400	-10.178	0.100
181.500	-6.246	0.100
181.600	-15.062	0.100
181.700	-9.223	0.100
181.800	-14.212	0.100
181.900	-11.371	0.100
182.000	-5.953	0.100
182.100	-18.249	0.100
182.200	-9.901	0.100
182.300	-11.343	0.100
182.400	-1.710	0.100
182.500	-4.432	0.100
182.600	-8.021	0.100
182.700	-10.622	0.100
182.800	-12.480	0.100
182.900	-11.076	0.100
183.000	-9.837	0.100
183.100	-3.270	0.100
183.200	-18.662	0.100
183.300	-11.316	0.100
183.400	-1.912	0.100
183.500	-13.915	0.100
183.600	-6.836	0.100
183.700	-13.478	0.100
183.800	-0.937	0.100
183.900	-2.197	0.100
184.000	-9.452	0.100
184.100	-20.127	0.100
184.200	-11.119	0.100
184.300	-22.979	0.100
184.400	-6.344	0.100
184.500	-11.806	0.100
184.600	-9.777	0.100
184.700	-4.223	0.100
184.800	-8.321	0.100
184.900	0.101	0.100
185.000	-3.921	0.100
185.100	-12.008	0.100
185.200	2.968	0.100
185.300	-5.219	0.100
185.400	-4.510	0.100
185.500	-8.584	0.100
185.600	-8.570	0.100
185.700	-5.216	0.100
185.800	-9.079	0.100
185.900	-2.628	0.100
186.000	-3.641	0.100
186.100	-6.109	0.100
186.200	-3.609	0.100
186.300	-11.497	0.100
186.400	-8.044	0.100
186.500	-10.212	0.100
186.600	-4.629	0.100
186.700	-14.831	0.100
186.800	0.059	0.100
186.900	-5.269	0.100
187.000	-0.581	0.100
187.100	-14.942	0.100
187.200	-12.608	0.100
187.300	-5.507	0.100
187.400	-10.294	0.100
187.500	2.507	0.100
187.600	-7.269	0.100
187.700	-4.659	0.100
187.800	-18.861	0.100
187.900	-12.342	0.100
188.000	-7.647	0.100
188.100	-6.599	0.100
188.200	9.721	0.100
188.300	-4.561	0.100
188.400	-7.484	0.100
188.500	-12.897	0.100
188.600	-9.430	0.100
188.700	-5.987	0.100
188.800	-0.016	0.100
188.900	-5.665	0.100
189.000	-7.859	0.100
189.100	-8.000	0.100
189.200	-3.825	0.100
189.300	-8.519	0.100
189.400	-1.714	0.100
189.500	-0.216	0.100
189.600	-5.692	0.100
189.700	-11.330	0.100
189.800	-0.873	0.100
189.900	-13.609	0.100
190.000	-7.279	0.100
190.100	-10.475	0.100
190.200	-8.423	0.100
190.300	-7.518	0.100
190.400	-13.893	0.100
190.500	-8.697	0.100
190.600	-5.721	0.100
190.700	-2.431	0.100
190.800	-5.111	0.100
190.900	1.179	0.100
191.000	-9.227	0.100
191.100	-7.723	0.100
191.200	-6.135	0.100
191.300	-9.337	0.100
191.400	-7.474	0.100
191.500	-9.373	0.100
191.600	-4.384	0.100
191.700	-6.871	0.100
191.800	-6.001	0.100
191.900	-0.869	0.100
192.000	-6.029	0.100
192.100	-11.113	0.100
192.200	-12.840	0.100
192.300	-6.284	0.100
192.400	-4.514	0.100
192.500	-8.080	0.100
192.600	-4.380	0.100
192.700	-16.372	0.100
192.800	-10.485	0.100
192.900	-18.593	0.100
193.000	-1.821	0.100
193.100	-5.454	0.100
193.200	-5.816	0.100
193.300	-3.036	0.100
193.400	-3.031	0.100
193.500	-5.182	0.100
193.600	-6.078	0.100
193.700	-6.537	0.100
193.800	-1.377	0.100
193.900	-1.612	0.100
194.000	-5.903	0.100
194.100	-1.169	0.100
194.200	-4.553	0.100
194.300	-10.655	0.100
194.400	-14.757	0.100
194.500	3.612	0.100
194.600	1.846	0.100
194.700	-9.180	0.100
194.800	-15.155	0.100
194.900	-6.049	0.100
195.000	-6.100	0.100
195.100	-2.092	0.100
195.200	-5.005	0.100
195.300	-13.546	0.100
195.400	-12.973	0.100
195.500	1.570	0.100
195.600	-9.809	0.100
195.700	-12.946	0.100
195.800	-9.300	0.100
195.900	-12.037	0.100
196.000	0.796	0.100
196.100	-1.908	0.100
196.200	-1.114	0.100
196.300	-1.698	0.100
196.400	-4.424	0.100
196.500	-7.099	0.100
196.600	-6.312	0.100
196.700	-11.749	0.100
196.800	-6.542	0.100
196.900	-12.516	0.100
197.000	-8.545	0.100
197.100	2.093	0.100
197.200	-1.737	0.100
197.300	-5.600	0.100
197.400	-5.942	0.100
197.500	-3.808	0.100
197.600	-8.267	0.100
197.700	-8.624	0.100
197.800	-6.212	0.100
197.900	-6.622	0.100
198.000	-1.911	0.100
198.100	0.505	0.100
198.200	-7.750	0.100
198.300	-0.425	0.100
198.400	-8.388	0.100
198.500	-10.133	0.100
198.600	-11.992	0.100
198.700	-9.683	0.100
198.800	-4.418	0.100
198.900	-12.139	0.100
199.000	-10.216	0.100
199.100	3.591	0.100
199.200	-0.564	0.100
199.300	-4.256	0.100
199.400	-5.453	0.100
199.500	-5.259	0.100
199.600	-2.584	0.100
199.700	-13.099	0.100
199.800	-7.091	0.100
199.900	0.603	0.100
200.000	-7.593	0.100
200.100	1.632	0.100
200.200	-5.714	0.100
200.300	-9.273	0.100
200.400	-12.374	0.100
200.500	-8.729	0.100
200.600	-1.059	0.100
200.700	-16.351	0.100
200.800	-9.165	0.100
200.900	-0.623	0.100
201.000	-6.341	0.100
201.100	-11.035	0.100
201.200	-7.990	0.100
201.300	-3.704	0.100
201.400	0.023	0.100
201.500	-1.027	0.100
201.600	-12.918	0.100
201.700	-9.620	0.100
201.800	-10.387	0.100
201.900	-4.730	0.100
202.000	-2.413	0.100
202.100	-7.791	0.100
202.200	-3.344	0.100
202.300	-7.311	0.100
202.400	-16.270	0.100
202.500	-9.160	0.100
202.600	6.790	0.100
202.700	-3.294	0.100
202.800	-8.425	0.100
202.900	-2.325	0.100
203.000	-4.128	0.100
203.100	-7.503	0.100
203.200	-2.504	0.100
203.300	-3.273	0.100
203.400	-1.675	0.100
203.500	-8.026	0.100
203.600	-7.420	0.100
203.700	-3.739	0.100
203.800	-1.825	0.100
203.900	-6.116	0.100
204.000	-1.900	0.100
204.100	2.611	0.100
204.200	-4.525	0.100
204.300	-20.908	0.100
204.400	0.089	0.100
204.500	2.299	0.100
204.600	-6.471	0.100
204.700	-3.212	0.100
204.800	-5.344	0.100
204.900	-2.379	0.100
205.000	-2.183	0.100
205.100	-1.945	0.100
205.200	-2.831	0.100
205.300	-2.133	0.100
205.400	-10.540	0.100
205.500	-9.873	0.100
205.600	-4.450	0.100
205.700	-2.347	0.100
205.800	-14.278	0.100
205.900	-6.090	0.100
206.000	-10.350	0.100
206.100	-1.465	0.100
206.200	-8.669	0.100
206.300	-5.545	0.100
206.400	-16.505	0.100
206.500	-4.245	0.100
206.600	1.412	0.100
206.700	-5.027	0.100
206.800	-0.382	0.100
206.900	-16.765	0.100
207.000	0.357	0.100
207.100	-10.555	0.100
207.200	-0.229	0.100
207.300	-3.586	0.100
207.400	4.936	0.100
207.500	-0.714	0.100
207.600	2.271	0.100
207.700	-1.648	0.100
207.800	-13.638	0.100
207.900	-13.322	0.100
208.000	-10.154	0.100
208.100	-9.387	0.100
208.200	-3.046	0.100
208.300	6.445	0.100
208.400	5.917	0.100
208.500	-0.965	0.100
208.600	-9.597	0.100
208.700	-3.740	0.100
208.800	-5.764	0.100
208.900	1.564	0.100
209.000	-8.821	0.100
209.100	-11.638	0.100
209.200	-6.196	0.100
209.300	-2.518	0.100
209.400	-11.283	0.100
209.500	-4.184	0.100
209.600	-0.742	0.100
209.700	-5.124	0.100
209.800	-3.627	0.100
209.900	-2.985	0.100
210.000	-0.927	0.100
210.100	-0.537	0.100
210.200	-0.849	0.100
210.300	-1.721	0.100
210.400	-7.377	0.100
210.500	5.726	0.100
210.600	-3.344	0.100
210.700	-8.075	0.100
210.800	-2.966	0.100
210.900	0.165	0.100
211.000	-3.947	0.100
211.100	-10.968	0.100
211.200	-4.440	0.100
211.300	-4.565	0.100
211.400	2.757	0.100
211.500	-12.605	0.100
211.600	-12.499	0.100
211.700	-3.917	0.100
211.800	-9.670	0.100
211.900	-8.302	0.100
212.000	-3.117	0.100
212.100	-9.187	0.100
212.200	-7.390	0.100
212.300	3.827	0.100
212.400	-7.676	0.100
212.500	-5.971	0.100
212.600	-4.961	0.100
212.700	-9.609	0.100
212.800	-4.120	0.100
212.900	-2.872	0.100
213.000	-2.251	0.100
213.100	3.681	0.100
213.200	-9.718	0.100
213.300	-9.513	0.100
213.400	-8.600	0.100
213.500	-6.934	0.100
213.600	3.385	0.100
213.700	-0.516	0.100
213.800	-10.499	0.100
213.900	-1.723	0.100
214.000	1.617	0.100
214.100	0.836	0.100
214.200	-1.197	0.100
214.300	-9.502	0.100
214.400	0.183	0.100
214.500	-14.437	0.100
214.600	-7.582	0.100
214.700	-21.487	0.100
214.800	-0.692	0.100
214.900	2.450	0.100
215.000	5.718	0.100
215.100	-9.418	0.100
215.200	-12.480	0.100
215.300	-5.885	0.100
215.400	-4.313	0.100
215.500	5.752	0.100
215.600	-1.786	0.100
215.700	-12.242	0.100
215.800	1.081	0.100
215.900	-7.745	0.100
216.000	-3.268	0.100
216.100	4.867	0.100
216.200	-7.685	0.100
216.300	-4.598	0.100
216.400	-3.064	0.100
216.500	-0.039	0.100
216.600	-5.222	0.100
216.700	-6.709	0.100
216.800	3.205	0.100
216.900	-6.067	0.100
217.000	-12.226	0.100
217.100	-6.150	0.100
217.200	-2.506	0.100
217.300	-6.219	0.100
217.400	-5.870	0.100
217.500	-0.854	0.100
217.600	-2.661	0.100
217.700	-14.344	0.100
217.800	-3.891	0.100
217.900	-0.708	0.100
218.000	0.278	0.100
218.100	-6.843	0.100
218.200	-9.973	0.100
218.300	-1.746	0.100
218.400	-0.304	0.100
218.500	-4.719	0.100
218.600	-7.033	0.100
218.700	-1.403	0.100
218.800	1.748	0.100
218.900	-5.889	0.100
219.000	-5.351	0.100
219.100	-12.755	0.100
219.200	-6.314	0.100
219.300	-6.651	0.100
219.400	-5.900	0.100
219.500	10.004	0.100
219.600	0.241	0.100
219.700	-3.330	0.100
219.800	-7.274	0.100
219.900	-5.737	0.100
220.000	13.510	0.100
220.100	1.772	0.100
220.200	-4.748	0.100
220.300	-7.141	0.100
220.400	0.347	0.100
220.500	3.530	0.100
220.600	13.699	0.100
220.700	-13.418	0.100
220.800	-8.883	0.100
220.900	3.758	0.100
221.000	-7.792	0.100
221.100	1.954	0.100
221.200	-1.467	0.100
221.300	-7.459	0.100
221.400	-1.578	0.100
221.500	-2.219	0.100
221.600	-7.270	0.100
221.700	-9.423	0.100
221.800	-4.331	0.100
221.900	-1.642	0.100
222.000	-8.085	0.100
222.100	-2.619	0.100
222.200	-0.397	0.100
222.300	-4.654	0.100
222.400	6.557	0.100
222.500	-8.872	0.100
222.600	-8.197	0.100
222.700	0.485	0.100
222.800	-1.669	0.100
222.900	-4.390	0.100
223.000	0.060	0.100
223.100	-3.658	0.100
223.200	6.068	0.100
223.300	-3.731	0.100
223.400	-2.206	0.100
223.500	1.068	0.100
223.600	-2.682	0.100
223.700	-2.405	0.100
223.800	3.649	0.100
223.900	-12.181	0.100
224.000	-5.656	0.100
224.100	3.314	0.100
224.200	9.032	0.100
224.300	-7.664	0.100
224.400	1.254	0.100
224.500	-0.375	0.100
224.600	-10.543	0.100
224.700	1.164	0.100
224.800	4.405	0.100
224.900	0.447	0.100
225.000	-0.849	0.100
225.100	2.155	0.100
225.200	-6.786	0.100
225.300	3.272	0.100
225.400	4.818	0.100
225.500	-7.204	0.100
225.600	-0.838	0.100
225.700	-13.327	0.100
225.800	-11.355	0.100
225.900	-10.389	0.100
226.000	-7.258	0.100
226.100	-9.212	0.100
226.200	-0.685	0.100
226.300	1.218	0.100
226.400	-21.735	0.100
226.500	1.305	0.100
226.600	1.754	0.100
226.700	-3.103	0.100
226.800	-9.985	0.100
226.900	8.724	0.100
227.000	-19.363	0.100
227.100	-6.814	0.100
227.200	-4.182	0.100
227.300	-2.240	0.100
227.400	-6.464	0.100
227.500	-0.138	0.100
227.600	1.747	0.100
227.700	-0.159	0.100
227.800	7.262	0.100
227.900	6.362	0.100
228.000	5.516	0.100
228.100	-9.863	0.100
228.200	-13.166	0.100
228.300	-3.004	0.100
228.400	-5.550	0.100
228.500	-3.804	0.100
228.600	4.283	0.100
228.700	-4.665	0.100
228.800	-4.378	0.100
228.900	-5.003	0.100
229.000	-7.527	0.100
229.100	3.348	0.100
229.200	-7.434	0.100
229.300	-2.387	0.100
229.400	-0.915	0.100
229.500	-2.302	0.100
229.600	-7.181	0.100
229.700	-13.311	0.100
229.800	5.374	0.100
229.900	-10.852	0.100
230.000	0.682	0.100
230.100	-8.960	0.100
230.200	7.663	0.100
230.300	7.333	0.100
230.400	-3.698	0.100
230.500	-2.613	0.100
230.600	-0.212	0.100
230.700	0.737	0.100
230.800	-5.149	0.100
230.900	-6.182	0.100
231.000	-8.462	0.100
231.100	-0.449	0.100
231.200	4.216	0.100
231.300	-13.584	0.100
231.400	0.606	0.100
231.500	-2.415	0.100
231.600	-8.340	0.100
231.700	-3.333	0.100
231.800	5.243	0.100
231.900	-2.879	0.100
232.000	-6.594	0.100
232.100	-3.024	0.100
232.200	-10.775	0.100
232.300	0.189	0.100
232.400	-1.342	0.100
232.500	-7.530	0.100
232.600	-1.361	0.100
232.700	3.694	0.100
232.800	-6.066	0.100
232.900	2.544	0.100
233.000	-0.271	0.100
233.100	-3.673	0.100
233.200	2.781	0.100
233.300	-1.030	0.100
233.400	-4.515	0.100
233.500	-1.216	0.100
233.600	-8.342	0.100
233.700	-3.532	0.100
233.800	-1.777	0.100
233.900	1.881	0.100
234.000	4.232	0.100
234.100	-11.228	0.100
234.200	-8.422	0.100
234.300	3.094	0.100
234.400	-9.330	0.100
234.500	-7.381	0.100
234.600	-2.699	0.100
234.700	-10.101	0.100
234.800	7.235	0.100
234.900	-15.275	0.100
235.000	11.955	0.100
235.100	7.569	0.100
235.200	8.934	0.100
235.300	-8.680	0.100
235.400	-15.909	0.100
235.500	-2.604	0.100
235.600	-5.797	0.100
235.700	-4.713	0.100
235.800	-1.287	0.100
235.900	2.029	0.100
236.000	-5.283	0.100
236.100	-12.167	0.100
236.200	-5.136	0.100
236.300	11.893	0.100
236.400	-2.418	0.100
236.500	0.605	0.100
236.600	-2.580	0.100
236.700	4.057	0.100
236.800	-3.265	0.100
236.900	-5.233	0.100
237.000	-2.270	0.100
237.100	-10.185	0.100
237.200	0.775	0.100
237.300	3.096	0.100
237.400	0.367	0.100
237.500	-7.637	0.100
237.600	-2.708	0.100
237.700	-9.007	0.100
237.800	5.344	0.100
237.900	3.696	0.100
238.000	3.637	0.100
238.100	3.863	0.100
238.200	-0.685	0.100
238.300	-10.184	0.100
238.400	-3.071	0.100
238.500	-10.208	0.100
238.600	-0.960	0.100
238.700	14.594	0.100
238.800	-3.370	0.100
238.900	2.039	0.100
239.000	-4.772	0.100
239.100	-9.719	0.100
239.200	-13.416	0.100
239.300	-0.350	0.100
239.400	0.514	0.100
239.500	-8.867	0.100
239.600	-2.967	0.100
239.700	0.735	0.100
239.800	-7.083	0.100
239.900	-3.697	0.100
240.000	5.159	0.100
240.100	-2.290	0.100
240.200	0.219	0.100
240.300	4.962	0.100
240.400	-6.670	0.100
240.500	-3.386	0.100
240.600	-1.426	0.100
240.700	-4.757	0.100
240.800	0.094	0.100
240.900	0.614	0.100
241.000	1.696	0.100
241.100	-6.866	0.100
241.200	-8.624	0.100
241.300	-3.664	0.100
241.400	-5.146	0.100
241.500	-1.580	0.100
241.600	0.128	0.100
241.700	5.143	0.100
241.800	-3.160	0.100
241.900	-3.109	0.100
242.000	2.038	0.100
242.100	0.692	0.100
242.200	1.780	0.100
242.300	-10.507	0.100
242.400	-4.341	0.100
242.500	-5.213	0.100
242.600	-6.023	0.100
242.700	1.762	0.100
242.800	0.052	0.100
242.900	2.025	0.100
243.000	-6.814	0.100
243.100	-4.966	0.100
243.200	-8.279	0.100
243.300	-1.738	0.100
243.400	-5.962	0.100
243.500	-7.137	0.100
243.600	-7.048	0.100
243.700	-6.777	0.100
243.800	0.452	0.100
243.900	-2.886	0.100
244.000	-1.895	0.100
244.100	-5.527	0.100
244.200	-5.107	0.100
244.300	8.297	0.100
244.400	-2.779	0.100
244.500	-7.361	0.100
244.600	4.822	0.100
244.700	-16.305	0.100
244.800	-2.481	0.100
244.900	10.089	0.100
245.000	-6.922	0.100
245.100	-11.988	0.100
245.200	-7.986	0.100
245.300	10.668	0.100
245.400	-5.307	0.100
245.500	-9.529	0.100
245.600	-7.349	0.100
245.700	-10.916	0.100
245.800	-8.794	0.100
245.900	-7.700	0.100
246.000	9.547	0.100
246.100	-0.351	0.100
246.200	9.361	0.100
246.300	-3.593	0.100
246.400	-0.960	0.100
246.500	-11.122	0.100
246.600	-4.734	0.100
246.700	4.516	0.100
246.800	-2.380	0.100
246.900	-4.969	0.100
247.000	-12.252	0.100
247.100	1.150	0.100
247.200	-5.483	0.100
247.300	-14.630	0.100
247.400	-11.812	0.100
247.500	-1.990	0.100
247.600	-3.353	0.100
247.700	2.363	0.100
247.800	2.484	0.100
247.900	8.580	0.100
248.000	-8.477	0.100
248.100	-0.749	0.100
248.200	-8.662	0.100
248.300	1.299	0.100
248.400	-5.183	0.100
248.500	-5.993	0.100
248.600	-14.811	0.100
248.700	-9.963	0.100
248.800	-1.045	0.100
248.900	1.763	0.100
249.000	-4.667	0.100
249.100	3.234	0.100
249.200	-12.475	0.100
249.300	-10.093	0.100
249.400	-8.326	0.100
249.500	-7.660	0.100
249.600	-0.043	0.100
249.700	-8.817	0.100
249.800	-7.524	0.100
249.900	-1.661	0.100
250.000	7.401	0.100
250.100	1.344	0.100
250.200	-15.314	0.100
250.300	-7.814	0.100
250.400	0.374	0.100
250.500	-4.134	0.100
250.600	-9.642	0.100
250.700	-6.592	0.100
250.800	0.344	0.100
250.900	1.118	0.100
251.000	2.340	0.100
251.100	-5.721	0.100
251.200	-4.676	0.100
251.300	-2.250	0.100
251.400	-12.583	0.100
251.500	-1.151	0.100
251.600	-5.627	0.100
251.700	-0.469	0.100
251.800	5.988	0.100
251.900	-4.532	0.100
252.000	-11.110	0.100
252.100	-8.628	0.100
252.200	-7.281	0.100
252.300	-5.600	0.100
252.400	-2.730	0.100
252.500	10.442	0.100
252.600	-10.188	0.100
252.700	-5.558	0.100
252.800	-5.631	0.100
252.900	-0.551	0.100
253.000	-0.037	0.100
253.100	-1.495	0.100
253.200	-15.656	0.100
253.300	-6.502	0.100
253.400	8.777	0.100
253.500	-2.042	0.100
253.600	-9.455	0.100
253.700	-2.971	0.100
253.800	-0.393	0.100
253.900	0.708	0.100
254.000	-4.861	0.100
254.100	-1.564	0.100
254.200	-1.563	0.100
254.300	-10.094	0.100
254.400	-14.055	0.100
254.500	-6.942	0.100
254.600	7.069	0.100
254.700	-9.684	0.100
254.800	-10.596	0.100
254.900	-10.016	0.100
255.000	-4.751	0.100
255.100	-3.608	0.100
255.200	-1.986	0.100
255.300	8.577	0.100
255.400	-1.438	0.100
255.500	-2.304	0.100
255.600	-22.145	0.100
255.700	-3.291	0.100
255.800	-10.698	0.100
255.900	-9.152	0.100
256.000	-5.533	0.100
256.100	-10.346	0.100
256.200	-2.278	0.100
256.300	-9.840	0.100
256.400	-9.138	0.100
256.500	7.927	0.100
256.600	-6.045	0.100
256.700	-7.592	0.100
256.800	-2.517	0.100
256.900	-5.990	0.100
257.000	-0.969	0.100
257.100	-1.037	0.100
257.200	-6.411	0.100
257.300	10.668	0.100
257.400	-20.508	0.100
257.500	-1.447	0.100
257.600	-5.611	0.100
257.700	0.138	0.100
257.800	-2.240	0.100
257.900	-8.307	0.100
258.000	-7.543	0.100
258.100	-7.644	0.100
258.200	-13.802	0.100
258.300	1.921	0.100
258.400	-3.324	0.100
258.500	-2.471	0.100
258.600	-9.850	0.100
258.700	-10.965	0.100
258.800	1.091	0.100
258.900	-3.599	0.100
259.000	-1.191	0.100
259.100	-7.548	0.100
259.200	-16.961	0.100
259.300	-3.177	0.100
259.400	5.578	0.100
259.500	-4.121	0.100
259.600	-4.681	0.100
259.700	-2.249	0.100
259.800	-14.884	0.100
259.900	-5.881	0.100
260.000	-8.317	0.100
260.100	1.445	0.100
260.200	-7.026	0.100
260.300	-12.932	0.100
260.400	-3.334	0.100
260.500	-8.960	0.100
260.600	-6.284	0.100
260.700	4.231	0.100
260.800	-16.310	0.100
260.900	-2.359	0.100
261.000	-12.695	0.100
261.100	-8.807	0.100
261.200	-15.152	0.100
261.300	-14.200	0.100
261.400	-1.766	0.100
261.500	-10.970	0.100
261.600	-2.930	0.100
261.700	0.169	0.100
261.800	-12.187	0.100
261.900	-13.524	0.100
262.000	-5.843	0.100
262.100	-1.355	0.100
262.200	-10.768	0.100
262.300	-8.201	0.100
262.400	-1.585	0.100
262.500	-15.476	0.100
262.600	-7.177	0.100
262.700	-4.829	0.100
262.800	-10.618	0.100
262.900	-2.953	0.100
263.000	-7.455	0.100
263.100	-3.264	0.100
263.200	-5.590	0.100
263.300	-17.066	0.100
263.400	-0.686	0.100
263.500	-0.788	0.100
263.600	8.179	0.100
263.700	-12.414	0.100
263.800	-11.916	0.100
263.900	-15.562	0.100
264.000	-6.817	0.100
264.100	-8.035	0.100
264.200	5.437	0.100
264.300	-3.491	0.100
264.400	0.667	0.100
264.500	-6.003	0.100
264.600	-5.497	0.100
264.700	-13.325	0.100
264.800	-8.094	0.100
264.900	2.250	0.100
265.000	-10.826	0.100
265.100	-2.145	0.100
265.200	-2.187	0.100
265.300	-16.859	0.100
265.400	-8.351	0.100
265.500	-7.217	0.100
265.600	-7.296	0.100
265.700	1.575	0.100
265.800	1.363	0.100
265.900	-5.155	0.100
266.000	-6.079	0.100
266.100	-14.676	0.100
266.200	-4.627	0.100
266.300	-7.156	0.100
266.400	-0.554	0.100
266.500	-17.531	0.100
266.600	-7.358	0.100
266.700	-5.628	0.100
266.800	-5.793	0.100
266.900	-18.002	0.100
267.000	-3.168	0.100
267.100	-0.251	0.100
267.200	-5.623	0.100
267.300	-2.205	0.100
267.400	-2.181	0.100
267.500	-14.242	0.100
267.600	-3.772	0.100
267.700	-6.777	0.100
267.800	-11.845	0.100
267.900	-8.753	0.100
268.000	-2.559	0.100
268.100	-7.037	0.100
268.200	-8.307	0.100
268.300	-13.076	0.100
268.400	-7.455	0.100
268.500	-4.908	0.100
268.600	-3.036	0.100
268.700	2.789	0.100
268.800	-9.875	0.100
268.900	-2.465	0.100
269.000	-12.063	0.100
269.100	-11.469	0.100
269.200	-4.081	0.100
269.300	-12.257	0.100
269.400	-4.045	0.100
269.500	5.065	0.100
269.600	-5.014	0.100
269.700	3.718	0.100
269.800	-8.105	0.100
269.900	-9.892	0.100
270.000	-3.678	0.100
270.100	-7.114	0.100
270.200	-17.799	0.100
270.300	-8.986	0.100
270.400	-6.068	0.100
270.500	-10.355	0.100
270.600	-9.831	0.100
270.700	-8.442	0.100
270.800	-0.098	0.100
270.900	-2.270	0.100
271.000	-16.460	0.100
271.100	-0.991	0.100
271.200	-8.085	0.100
271.300	1.778	0.100
271.400	-7.130	0.100
271.500	-4.899	0.100
271.600	-11.620	0.100
271.700	-10.281	0.100
271.800	-12.033	0.100
271.900	-9.245	0.100
272.000	-5.367	0.100
272.100	-7.498	0.100
272.200	1.106	0.100
272.300	-5.442	0.100
272.400	-11.619	0.100
272.500	-10.934	0.100
272.600	-5.544	0.100
272.700	-1.927	0.100
272.800	-0.674	0.100
272.900	-2.065	0.100
273.000	-24.685	0.100
273.100	-14.348	0.100
273.200	-5.125	0.100
273.300	-3.762	0.100
273.400	-5.720	0.100
273.500	-8.452	0.100
273.600	3.446	0.100
273.700	-9.409	0.100
273.800	-10.486	0.100
273.900	-3.477	0.100
274.000	1.082	0.100
274.100	-12.708	0.100
274.200	-7.372	0.100
274.300	-2.430	0.100
274.400	-7.204	0.100
274.500	-7.827	0.100
274.600	-17.181	0.100
274.700	-12.802	0.100
274.800	-1.457	0.100
274.900	-15.725	0.100
275.000	-5.160	0.100
275.100	-3.050	0.100
275.200	-10.902	0.100
275.300	-3.315	0.100
275.400	4.092	0.100
275.500	-0.811	0.100
275.600	-8.241	0.100
275.700	-2.770	0.100
275.800	-7.293	0.100
275.900	-7.585	0.100
276.000	-8.506	0.100
276.100	-14.902	0.100
276.200	-9.972	0.100
276.300	-9.311	0.100
276.400	-7.047	0.100
276.500	-8.154	0.100
276.600	-17.458	0.100
276.700	-0.281	0.100
276.800	-3.546	0.100
276.900	-4.241	0.100
277.000	-9.930	0.100
277.100	-0.068	0.100
277.200	-5.919	0.100
277.300	-3.642	0.100
277.400	-7.172	0.100
277.500	-17.603	0.100
277.600	-11.608	0.100
277.700	-9.369	0.100
277.800	2.223	0.100
277.900	-18.808	0.100
278.000	-0.855	0.100
278.100	-11.192	0.100
278.200	-10.875	0.100
278.300	8.015	0.100
278.400	-6.755	0.100
278.500	-11.617	0.100
278.600	-5.647	0.100
278.700	-1.062	0.100
278.800	-11.418	0.100
278.900	-10.948	0.100
279.000	-3.422	0.100
279.100	-8.659	0.100
279.200	-11.173	0.100
279.300	-11.354	0.100
279.400	-1.481	0.100
279.500	1.129	0.100
279.600	-9.717	0.100
279.700	-8.151	0.100
279.800	-7.695	0.100
279.900	-6.372	0.100
280.000	-1.159	0.100
280.100	-10.065	0.100
280.200	-9.767	0.100
280.300	-5.856	0.100
280.400	-8.129	0.100
280.500	-12.235	0.100
280.600	-11.364	0.100
280.700	-7.205	0.100
280.800	-8.573	0.100
280.900	-0.640	0.100
281.000	-1.117	0.100
281.100	0.654	0.100
281.200	-4.859	0.100
281.300	-8.791	0.100
281.400	-8.966	0.100
281.500	-5.676	0.100
281.600	-15.578	0.100
281.700	-7.741	0.100
281.800	-2.498	0.100
281.900	-10.001	0.100
282.000	-2.286	0.100
282.100	-6.421	0.100
282.200	-8.285	0.100
282.300	-13.011	0.100
282.400	-4.842	0.100
282.500	-10.494	0.100
282.600	-10.709	0.100
282.700	-1.961	0.100
282.800	-3.830	0.100
282.900	-7.751	0.100
283.000	-22.704	0.100
283.100	-11.801	0.100
283.200	4.665	0.100
283.300	-5.731	0.100
283.400	-18.406	0.100
283.500	-7.110	0.100
283.600	-6.702	0.100
283.700	-8.801	0.100
283.800	-13.843	0.100
283.900	2.960	0.100
284.000	-11.945	0.100
284.100	-17.076	0.100
284.200	-4.209	0.100
284.300	-6.463	0.100
284.400	-11.282	0.100
284.500	-12.362	0.100
284.600	-3.191	0.100
284.700	-12.694	0.100
284.800	-16.119	0.100
284.900	-8.319	0.100
285.000	-3.898	0.100
285.100	-4.756	0.100
285.200	-11.894	0.100
285.300	-9.987	0.100
285.400	-3.375	0.100
285.500	-4.637	0.100
285.600	-3.841	0.100
285.700	-8.056	0.100
285.800	-11.065	0.100
285.900	-12.067	0.100
286.000	0.558	0.100
286.100	-14.749	0.100
286.200	-1.060	0.100
286.300	0.167	0.100
286.400	-8.242	0.100
286.500	-9.259	0.100
286.600	-8.853	0.100
286.700	0.238	0.100
286.800	-21.787	0.100
286.900	-10.660	0.100
287.000	-11.176	0.100
287.100	-9.689	0.100
287.200	-9.209	0.100
287.300	-6.813	0.100
287.400	-11.314	0.100
287.500	-7.463	0.100
287.600	-11.011	0.100
287.700	-15.564	0.100
287.800	-3.465	0.100
287.900	1.717	0.100
288.000	-2.210	0.100
288.100	-18.575	0.100
288.200	-13.567	0.100
288.300	-3.215	0.100
288.400	-11.756	0.100
288.500	-6.453	0.100
288.600	4.042	0.100
288.700	-0.299	0.100
288.800	-1.243	0.100
288.900	0.046	0.100
289.000	-8.140	0.100
289.100	-13.403	0.100
289.200	-5.275	0.100
289.300	-4.352	0.100
289.400	-15.700	0.100
289.500	-10.055	0.100
289.600	-5.046	0.100
289.700	-9.240	0.100
289.800	-9.927	0.100
289.900	-8.037	0.100
290.000	-0.636	0.100
290.100	-13.615	0.100
290.200	-2.868	0.100
290.300	-7.433	0.100
290.400	-17.980	0.100
290.500	-14.409	0.100
290.600	-16.289	0.100
290.700	-3.431	0.100
290.800	-5.253	0.100
290.900	-3.289	0.100
291.000	-7.027	0.100
291.100	-14.372	0.100
291.200	-13.021	0.100
291.300	-6.185	0.100
291.400	-7.050	0.100
291.500	-10.790	0.100
291.600	-3.963	0.100
291.700	-9.341	0.100
291.800	-5.593	0.100
291.900	-7.812	0.100
292.000	-2.694	0.100
292.100	6.297	0.100
292.200	0.672	0.100
292.300	-10.046	0.100
292.400	-7.497	0.100
292.500	1.286	0.100
292.600	-13.607	0.100
292.700	1.273	0.100
292.800	-8.067	0.100
292.900	-9.888	0.100
293.000	-5.340	0.100
293.100	0.213	0.100
293.200	-2.474	0.100
293.300	4.935	0.100
293.400	-14.157	0.100
293.500	-7.481	0.100
293.600	-9.003	0.100
293.700	-10.251	0.100
293.800	0.449	0.100
293.900	-17.117	0.100
294.000	-0.158	0.100
294.100	-17.901	0.100
294.200	-17.022	0.100
294.300	-9.528	0.100
294.400	-15.965	0.100
294.500	-14.256	0.100
294.600	-14.372	0.100
294.700	-4.722	0.100
294.800	-20.332	0.100
294.900	-4.496	0.100
295.000	-3.074	0.100
295.100	-4.571	0.100
295.200	-1.990	0.100
295.300	-1.982	0.100
295.400	-14.627	0.100
295.500	-12.982	0.100
295.600	-5.886	0.100
295.700	-6.818	0.100
295.800	-13.146	0.100
295.900	-19.214	0.100
296.000	-12.839	0.100
296.100	-3.793	0.100
296.200	-8.607	0.100
296.300	-10.414	0.100
296.400	-10.374	0.100
296.500	-1.658	0.100
296.600	-9.423	0.100
296.700	-10.310	0.100
296.800	-4.397	0.100
296.900	-10.001	0.100
297.000	-21.017	0.100
297.100	-6.742	0.100
297.200	-0.788	0.100
297.300	-8.437	0.100
297.400	-11.148	0.100
297.500	-9.728	0.100
297.600	4.878	0.100
297.700	-9.670	0.100
297.800	-10.848	0.100
297.900	-5.752	0.100
298.000	-8.239	0.100
298.100	-5.797	0.100
298.200	-2.451	0.100
298.300	3.796	0.100
298.400	3.240	0.100
298.500	-7.335	0.100
298.600	-17.575	0.100
298.700	-15.086	0.100
298.800	-2.337	0.100
298.900	-5.338	0.100
299.000	-13.438	0.100
299.100	-12.024	0.100
299.200	-12.361	0.100
299.300	-5.507	0.100
299.400	-4.246	0.100
299.500	-13.156	0.100
299.600	-3.785	0.100
299.700	-6.314	0.100
299.800	-7.611	0.100
299.900	-15.251	0.100
300.000	-6.977	0.100
300.100	-8.891	0.100
300.200	2.156	0.100
300.300	-5.548	0.100
300.400	-9.732	0.100
300.500	-8.382	0.100
300.600	-11.449	0.100
300.700	-9.799	0.100
300.800	-11.551	0.100
300.900	-8.700	0.100
301.000	-9.398	0.100
301.100	-9.889	0.100
301.200	-7.624	0.100
301.300	-9.699	0.100
301.400	1.110	0.100
301.500	-14.720	0.100
301.600	-10.364	0.100
301.700	0.077	0.100
301.800	-9.807	0.100
301.900	-7.895	0.100
302.000	-2.577	0.100
302.100	-6.142	0.100
302.200	1.683	0.100
302.300	-10.917	0.100
302.400	-6.955	0.100
302.500	-12.456	0.100
302.600	-13.432	0.100
302.700	-15.419	0.100
302.800	-10.985	0.100
302.900	-14.639	0.100
303.000	-4.973	0.100
303.100	-8.908	0.100
303.200	-2.524	0.100
303.300	-12.240	0.100
303.400	-8.644	0.100
303.500	-11.680	0.100
303.600	-6.070	0.100
303.700	-3.189	0.100
303.800	-7.993	0.100
303.900	-9.727	0.100
304.000	-6.299	0.100
304.100	3.380	0.100
304.200	-5.481	0.100
304.300	-1.972	0.100
304.400	-8.441	0.100
304.500	-6.912	0.100
304.600	-18.325	0.100
304.700	-9.262	0.100
304.800	-11.814	0.100
304.900	2.289	0.100
305.000	-3.134	0.100
305.100	-9.019	0.100
305.200	-12.099	0.100
305.300	-9.641	0.100
305.400	-8.048	0.100
305.500	-4.526	0.100
305.600	-6.917	0.100
305.700	-9.157	0.100
305.800	-11.982	0.100
305.900	-8.560	0.100
306.000	-5.778	0.100
306.100	-11.139	0.100
306.200	-8.711	0.100
306.300	3.152	0.100
306.400	-7.110	0.100
306.500	0.195	0.100
306.600	-14.110	0.100
306.700	-3.197	0.100
306.800	-11.838	0.100
306.900	-3.745	0.100
307.000	-13.271	0.100
307.100	-4.340	0.100
307.200	-1.034	0.100
307.300	-14.408	0.100
307.400	-8.900	0.100
307.500	-14.109	0.100
307.600	2.784	0.100
307.700	-6.851	0.100
307.800	-8.550	0.100
307.900	-7.658	0.100
308.000	-10.392	0.100
308.100	-4.790	0.100
308.200	-10.759	0.100
308.300	-15.281	0.100
308.400	-15.564	0.100
308.500	2.144	0.100
308.600	-8.797	0.100
308.700	-10.938	0.100
308.800	-9.397	0.100
308.900	-7.551	0.100
309.000	-8.397	0.100
309.100	-3.828	0.100
309.200	-8.661	0.100
309.300	-2.031	0.100
309.400	-6.156	0.100
309.500	-5.101	0.100
309.600	-3.119	0.100
309.700	-12.559	0.100
309.800	-14.450	0.100
309.900	-10.407	0.100
310.000	-4.258	0.100
310.100	-4.919	0.100
310.200	3.848	0.100
310.300	-1.773	0.100
310.400	-19.386	0.100
310.500	-18.844	0.100
310.600	-17.590	0.100
310.700	-6.465	0.100
310.800	-2.819	0.100
310.900	-10.184	0.100
311.000	-5.343	0.100
311.100	-4.602	0.100
311.200	-16.546	0.100
311.300	-0.615	0.100
311.400	-3.345	0.100
311.500	-9.027	0.100
311.600	-2.504	0.100
311.700	-13.404	0.100
311.800	-5.129	0.100
311.900	-0.272	0.100
312.000	-6.990	0.100
312.100	-1.005	0.100
312.200	-21.898	0.100
312.300	-4.268	0.100
312.400	-3.642	0.100
312.500	-1.609	0.100
312.600	-7.759	0.100
312.700	-8.397	0.100
312.800	-12.639	0.100
312.900	-12.857	0.100
313.000	-13.995	0.100
313.100	-6.138	0.100
313.200	-9.182	0.100
313.300	-4.806	0.100
313.400	0.872	0.100
313.500	-4.627	0.100
313.600	-13.229	0.100
313.700	-8.897	0.100
313.800	-5.352	0.100
313.900	-5.664	0.100
314.000	-4.884	0.100
314.100	-13.150	0.100
314.200	-7.587	0.100
314.300	-9.957	0.100
314.400	-7.641	0.100
314.500	-12.783	0.100
314.600	-7.169	0.100
314.700	-2.996	0.100
314.800	-13.553	0.100
314.900	-1.852	0.100
315.000	-9.729	0.100
315.100	-10.540	0.100
315.200	-5.313	0.100
315.300	-10.193	0.100
315.400	-10.019	0.100
315.500	-8.618	0.100
315.600	-10.272	0.100
315.700	-4.282	0.100
315.800	-15.114	0.100
315.900	-7.013	0.100
316.000	3.796	0.100
316.100	-7.387	0.100
316.200	-3.970	0.100
316.300	-8.412	0.100
316.400	-13.176	0.100
316.500	-7.091	0.100
316.600	-9.919	0.100
316.700	-12.496	0.100
316.800	-9.147	0.100
316.900	-8.209	0.100
317.000	-18.443	0.100
317.100	0.027	0.100
317.200	-0.073	0.100
317.300	-8.809	0.100
317.400	-19.155	0.100
317.500	-12.161	0.100
317.600	-4.431	0.100
317.700	-8.171	0.100
317.800	-10.949	0.100
317.900	-15.629	0.100
318.000	-13.081	0.100
318.100	-9.404	0.100
318.200	-7.204	0.100
318.300	-6.170	0.100
318.400	-7.113	0.100
318.500	-14.857	0.100
318.600	-15.280	0.100
318.700	-7.167	0.100
318.800	-0.873	0.100
318.900	-15.882	0.100
319.000	-8.708	0.100
319.100	-8.381	0.100
319.200	-11.601	0.100
319.300	-9.612	0.100
319.400	-8.481	0.100
319.500	-5.559	0.100
319.600	-8.159	0.100
319.700	-6.925	0.100
319.800	-6.999	0.100
319.900	0.024	0.100
320.000	-2.498	0.100
320.100	-13.071	0.100
320.200	-5.631	0.100
320.300	-3.802	0.100
320.400	-5.423	0.100
320.500	1.581	0.100
320.600	-20.411	0.100
320.700	-23.527	0.100
320.800	-6.447	0.100
320.900	-12.102	0.100
321.000	-15.958	0.100
321.100	-7.173	0.100
321.200	-7.862	0.100
321.300	-4.150	0.100
321.400	-3.521	0.100
321.500	-8.155	0.100
321.600	-6.133	0.100
321.700	-6.993	0.100
321.800	-6.454	0.100
321.900	-8.675	0.100
322.000	-13.551	0.100
322.100	-1.190	0.100
322.200	-6.822	0.100
322.300	-7.916	0.100
322.400	-15.897	0.100
322.500	-8.719	0.100
322.600	-13.087	0.100
322.700	-8.257	0.100
322.800	-8.430	0.100
322.900	-7.311	0.100
323.000	-9.560	0.100
323.100	-4.051	0.100
323.200	-2.566	0.100
323.300	-15.095	0.100
323.400	-10.870	0.100
323.500	-7.094	0.100
323.600	-7.320	0.100
323.700	-7.611	0.100
323.800	-9.754	0.100
323.900	-9.926	0.100
324.000	-15.297	0.100
324.100	-13.524	0.100
324.200	-8.234	0.100
324.300	1.861	0.100
324.400	-5.127	0.100
324.500	0.799	0.100
324.600	-5.601	0.100
324.700	-10.984	0.100
324.800	-7.326	0.100
324.900	-5.566	0.100
325.000	2.373	0.100
325.100	0.821	0.100
325.200	-21.096	0.100
325.300	-0.861	0.100
325.400	-9.928	0.100
325.500	-7.671	0.100
325.600	-11.085	0.100
325.700	-11.070	0.100
325.800	-7.158	0.100
325.900	-11.000	0.100
326.000	-4.487	0.100
326.100	1.909	0.100
326.200	-15.025	0.100
326.300	-4.246	0.100
326.400	-7.466	0.100
326.500	-11.174	0.100
326.600	-5.897	0.100
326.700	-17.109	0.100
326.800	-4.713	0.100
326.900	-10.682	0.100
327.000	-9.791	0.100
327.100	-12.953	0.100
327.200	-8.402	0.100
327.300	-15.594	0.100
327.400	-12.830	0.100
327.500	-7.579	0.100
327.600	-5.775	0.100
327.700	-16.597	0.100
327.800	-5.602	0.100
327.900	-8.309	0.100
328.000	-4.400	0.100
328.100	-8.704	0.100
328.200	-9.146	0.100
328.300	-3.443	0.100
328.400	-12.551	0.100
328.500	-9.273	0.100
328.600	-15.426	0.100
328.700	-6.923	0.100
328.800	-1.993	0.100
328.900	-4.456	0.100
329.000	-8.322	0.100
329.100	1.595	0.100
329.200	-6.136	0.100
329.300	-6.432	0.100
329.400	-3.771	0.100
329.500	-5.717	0.100
329.600	-10.914	0.100
329.700	-6.202	0.100
329.800	-5.613	0.100
329.900	-15.077	0.100
330.000	-9.716	0.100
330.100	-6.928	0.100
330.200	-9.720	0.100
330.300	-3.372	0.100
330.400	1.673	0.100
330.500	-11.797	0.100
330.600	-15.460	0.100
330.700	-11.928	0.100
330.800	-21.506	0.100
330.900	-7.909	0.100
331.000	-6.216	0.100
331.100	-5.343	0.100
331.200	-14.559	0.100
331.300	-4.929	0.100
331.400	-4.307	0.100
331.500	-6.403	0.100
331.600	-14.849	0.100
331.700	1.414	0.100
331.800	-10.744	0.100
331.900	-9.704	0.100
332.000	-2.813	0.100
332.100	-12.940	0.100
332.200	2.660	0.100
332.300	-10.971	0.100
332.400	-10.128	0.100
332.500	-7.272	0.100
332.600	-0.208	0.100
332.700	-12.074	0.100
332.800	-11.848	0.100
332.900	-5.870	0.100
333.000	-4.266	0.100
333.100	1.456	0.100
333.200	-5.947	0.100
333.300	-14.467	0.100
333.400	-15.417	0.100
333.500	-7.590	0.100
333.600	-5.331	0.100
333.700	-5.509	0.100
333.800	-7.025	0.100
333.900	-6.860	0.100
334.000	-0.315	0.100
334.100	-5.720	0.100
334.200	-10.793	0.100
334.300	-3.906	0.100
334.400	-4.499	0.100
334.500	-13.848	0.100
334.600	-14.355	0.100
334.700	-5.958	0.100
334.800	-2.525	0.100
334.900	-9.373	0.100
335.000	-6.559	0.100
335.100	-2.620	0.100
335.200	-16.660	0.100
335.300	-6.232	0.100
335.400	1.779	0.100
335.500	-16.291	0.100
335.600	-6.582	0.100
335.700	-12.063	0.100
335.800	-8.134	0.100
335.900	-6.637	0.100
336.000	-0.961	0.100
336.100	-1.002	0.100
336.200	-9.531	0.100
336.300	-6.176	0.100
336.400	2.972	0.100
336.500	-4.357	0.100
336.600	-21.453	0.100
336.700	-3.714	0.100
336.800	-14.147	0.100
336.900	3.336	0.100
337.000	-6.265	0.100
337.100	-6.345	0.100
337.200	-6.372	0.100
337.300	-0.934	0.100
337.400	-7.187	0.100
337.500	-10.253	0.100
337.600	-6.781	0.100
337.700	-7.227	0.100
337.800	-8.223	0.100
337.900	-1.471	0.100
338.000	-0.613	0.100
338.100	-2.600	0.100
338.200	-11.828	0.100
338.300	-13.558	0.100
338.400	-8.856	0.100
338.500	-0.360	0.100
338.600	-6.529	0.100
338.700	-14.216	0.100
338.800	-11.913	0.100
338.900	-0.810	0.100
339.000	-2.785	0.100
339.100	-12.183	0.100
339.200	1.650	0.100
339.300	-2.114	0.100
339.400	3.128	0.100
339.500	-5.989	0.100
339.600	-3.673	0.100
339.700	-2.621	0.100
339.800	-8.504	0.100
339.900	-5.072	0.100
340.000	-9.154	0.100
340.100	-13.306	0.100
340.200	-7.029	0.100
340.300	-4.611	0.100
340.400	-18.768	0.100
340.500	-1.443	0.100
340.600	-7.703	0.100
340.700	-8.277	0.100
340.800	2.052	0.100
340.900	-11.548	0.100
341.000	-7.333	0.100
341.100	-7.113	0.100
341.200	-5.324	0.100
341.300	-7.502	0.100
341.400	-8.658	0.100
341.500	3.234	0.100
341.600	-6.468	0.100
341.700	8.656	0.100
341.800	-4.895	0.100
341.900	-2.824	0.100
342.000	-6.589	0.100
342.100	-12.128	0.100
342.200	-6.059	0.100
342.300	-13.882	0.100
342.400	-11.512	0.100
342.500	1.894	0.100
342.600	-6.700	0.100
342.700	5.286	0.100
342.800	-8.284	0.100
342.900	5.548	0.100
343.000	-3.859	0.100
343.100	-11.925	0.100
343.200	-7.476	0.100
343.300	-0.216	0.100
343.400	-9.243	0.100
343.500	-3.253	0.100
343.600	-3.856	0.100
343.700	-8.738	0.100
343.800	-11.565	0.100
343.900	-5.834	0.100
344.000	-4.682	0.100
344.100	-2.623	0.100
344.200	1.075	0.100
344.300	-7.275	0.100
344.400	-5.351	0.100
344.500	-4.828	0.100
344.600	-3.800	0.100
344.700	-0.645	0.100
344.800	-5.382	0.100
344.900	-4.337	0.100
345.000	-3.202	0.100
345.100	-8.245	0.100
345.200	-3.592	0.100
345.300	-10.946	0.100
345.400	-15.106	0.100
345.500	-2.610	0.100
345.600	-0.028	0.100
345.700	-4.855	0.100
345.800	2.142	0.100
345.900	-11.628	0.100
346.000	-3.216	0.100
346.100	-2.043	0.100
346.200	-0.831	0.100
346.300	-10.847	0.100
346.400	0.386	0.100
346.500	0.351	0.100
346.600	-4.188	0.100
346.700	-9.890	0.100
346.800	-1.625	0.100
346.900	-13.224	0.100
347.000	4.569	0.100
347.100	0.135	0.100
347.200	-3.867	0.100
347.300	-3.388	0.100
347.400	-3.415	0.100
347.500	-11.941	0.100
347.600	-0.244	0.100
347.700	-9.285	0.100
347.800	-8.861	0.100
347.900	-3.276	0.100
348.000	-2.204	0.100
348.100	2.398	0.100
348.200	-0.139	0.100
348.300	1.594	0.100
348.400	-4.627	0.100
348.500	-6.961	0.100
348.600	-10.222	0.100
348.700	-2.968	0.100
348.800	-7.953	0.100
348.900	-8.982	0.100
349.000	-7.444	0.100
349.100	-4.753	0.100
349.200	-3.158	0.100
349.300	-9.799	0.100
349.400	-14.894	0.100
349.500	2.417	0.100
349.600	2.939	0.100
349.700	-4.522	0.100
349.800	3.441	0.100
349.900	-9.649	0.100
350.000	7.385	0.100
350.100	-6.557	0.100
350.200	-14.537	0.100
350.300	4.956	0.100
350.400	-2.685	0.100
350.500	1.682	0.100
350.600	-3.224	0.100
350.700	-1.712	0.100
350.800	12.074	0.100
350.900	-0.935	0.100
351.000	-17.998	0.100
351.100	0.806	0.100
351.200	-0.887	0.100
351.300	-9.799	0.100
351.400	-13.540	0.100
351.500	2.069	0.100
351.600	-4.061	0.100
351.700	-8.474	0.100
351.800	-10.559	0.100
351.900	-9.743	0.100
352.000	-4.167	0.100
352.100	-3.386	0.100
352.200	4.371	0.100
352.300	-5.660	0.100
352.400	-0.535	0.100
352.500	-4.513	0.100
352.600	-13.336	0.100
352.700	-8.837	0.100
352.800	-4.157	0.100
352.900	1.211	0.100
353.000	-2.033	0.100
353.100	-1.853	0.100
353.200	-5.325	0.100
353.300	-11.890	0.100
353.400	3.130	0.100
353.500	-5.930	0.100
353.600	-7.105	0.100
353.700	-8.581	0.100
353.800	-11.636	0.100
353.900	-5.256	0.100
354.000	-1.564	0.100
354.100	-8.815	0.100
354.200	0.443	0.100
354.300	-3.232	0.100
354.400	-6.321	0.100
354.500	-6.486	0.100
354.600	-5.436	0.100
354.700	-2.202	0.100
354.800	3.702	0.100
354.900	1.074	0.100
355.000	-8.992	0.100
355.100	-0.153	0.100
355.200	-9.331	0.100
355.300	-3.320	0.100
355.400	-5.623	0.100
355.500	-6.155	0.100
355.600	-0.949	0.100
355.700	-2.250	0.100
355.800	-9.965	0.100
355.900	-1.078	0.100
356.000	3.951	0.100
356.100	0.867	0.100
356.200	3.301	0.100
356.300	-13.037	0.100
356.400	7.624	0.100
356.500	5.982	0.100
356.600	2.396	0.100
356.700	-10.136	0.100
356.800	-6.158	0.100
356.900	-1.132	0.100
357.000	-12.602	0.100
357.100	1.679	0.100
357.200	-0.806	0.100
357.300	-0.536	0.100
357.400	6.782	0.100
357.500	-9.118	0.100
357.600	-10.713	0.100
357.700	-3.284	0.100
357.800	0.352	0.100
357.900	1.581	0.100
358.000	-10.329	0.100
358.100	3.453	0.100
358.200	-1.645	0.100
358.300	-5.635	0.100
358.400	-4.355	0.100
358.500	-3.761	0.100
358.600	-0.893	0.100
358.700	-0.519	0.100
358.800	0.261	0.100
358.900	-10.361	0.100
359.000	-7.255	0.100
359.100	2.299	0.100
359.200	2.379	0.100
359.300	-2.340	0.100
359.400	1.656	0.100
359.500	-3.273	0.100
359.600	1.520	0.100
359.700	-1.655	0.100
359.800	-6.458	0.100
359.900	-5.182	0.100
360.000	-7.569	0.100
360.100	-1.339	0.100
360.200	-2.274	0.100
360.300	-2.923	0.100
360.400	-11.087	0.100
360.500	-2.207	0.100
360.600	-11.588	0.100
360.700	-0.046	0.100
360.800	3.255	0.100
360.900	-2.278	0.100
361.000	-11.262	0.100
361.100	-5.751	0.100
361.200	3.529	0.100
361.300	2.496	0.100
361.400	-7.466	0.100
361.500	-4.190	0.100
361.600	-1.793	0.100
361.700	-0.684	0.100
361.800	-6.941	0.100
361.900	-4.579	0.100
362.000	-2.182	0.100
362.100	7.165	0.100
362.200	-9.400	0.100
362.300	6.218	0.100
362.400	-6.721	0.100
362.500	-6.903	0.100
362.600	-3.483	0.100
362.700	-6.734	0.100
362.800	4.054	0.100
362.900	-4.893	0.100
363.000	-7.739	0.100
363.100	-15.812	0.100
363.200	-2.081	0.100
363.300	-0.200	0.100
363.400	-6.217	0.100
363.500	-5.925	0.100
363.600	-2.601	0.100
363.700	-7.962	0.100
363.800	-9.066	0.100
363.900	-14.756	0.100
364.000	-5.845	0.100
364.100	3.748	0.100
364.200	-4.656	0.100
364.300	0.252	0.100
364.400	-4.001	0.100
364.500	-1.918	0.100
364.600	-8.340	0.100
364.700	-1.844	0.100
364.800	4.637	0.100
364.900	-3.580	0.100
365.000	-2.405	0.100
365.100	-0.444	0.100
365.200	8.101	0.100
365.300	-5.498	0.100
365.400	-5.138	0.100
365.500	-23.227	0.100
365.600	9.283	0.100
365.700	9.591	0.100
365.800	-6.042	0.100
365.900	3.117	0.100
366.000	7.765	0.100
366.100	1.416	0.100
366.200	-6.786	0.100
366.300	-10.383	0.100
366.400	-1.314	0.100
366.500	-2.249	0.100
366.600	0.493	0.100
366.700	-1.107	0.100
366.800	0.137	0.100
366.900	-8.658	0.100
367.000	-1.670	0.100
367.100	-3.081	0.100
367.200	-7.523	0.100
367.300	-0.934	0.100
367.400	6.980	0.100
367.500	2.598	0.100
367.600	-8.632	0.100
367.700	-5.949	0.100
367.800	-9.401	0.100
367.900	-2.319	0.100
368.000	-2.992	0.100
368.100	-9.094	0.100
368.200	3.085	0.100
368.300	-11.157	0.100
368.400	-6.880	0.100
368.500	-6.424	0.100
368.600	2.812	0.100
368.700	-0.560	0.100
368.800	-2.486	0.100
368.900	-5.170	0.100
369.000	1.998	0.100
369.100	2.225	0.100
369.200	2.196	0.100
369.300	-3.228	0.100
369.400	1.389	0.100
369.500	2.008	0.100
369.600	0.730	0.100
369.700	1.895	0.100
369.800	2.377	0.100
369.900	-9.780	0.100
370.000	-3.178	0.100
370.100	2.544	0.100
370.200	-6.576	0.100
370.300	-0.798	0.100
370.400	-6.082	0.100
370.500	6.422	0.100
370.600	-0.057	0.100
370.700	4.115	0.100
370.800	7.014	0.100
370.900	3.105	0.100
371.000	4.263	0.100
371.100	-4.352	0.100
371.200	-8.109	0.100
371.300	-5.870	0.100
371.400	-13.988	0.100
371.500	0.834	0.100
371.600	-3.399	0.100
371.700	-2.020	0.100
371.800	-5.835	0.100
371.900	-3.145	0.100
372.000	-2.746	0.100
372.100	-1.946	0.100
372.200	0.755	0.100
372.300	-0.307	0.100
372.400	-11.536	0.100
372.500	5.437	0.100
372.600	-2.475	0.100
372.700	3.320	0.100
372.800	2.944	0.100
372.900	6.035	0.100
373.000	2.177	0.100
373.100	-10.742	0.100
373.200	-6.505	0.100
373.300	-7.321	0.100
373.400	2.510	0.100
373.500	2.352	0.100
373.600	-5.072	0.100
373.700	-12.585	0.100
373.800	-4.067	0.100
373.900	-0.312	0.100
374.000	-5.062	0.100
374.100	-3.829	0.100
374.200	-3.759	0.100
374.300	-7.463	0.100
374.400	-6.530	0.100
374.500	4.604	0.100
374.600	2.485	0.100
374.700	-4.817	0.100
374.800	-4.186	0.100
374.900	-10.865	0.100
375.000	1.403	0.100
375.100	-3.100	0.100
375.200	-5.902	0.100
375.300	11.826	0.100
375.400	1.068	0.100
375.500	-11.906	0.100
375.600	2.388	0.100
375.700	-0.173	0.100
375.800	3.999	0.100
375.900	14.170	0.100
376.000	3.306	0.100
376.100	-10.694	0.100
376.200	-2.208	0.100
376.300	-7.285	0.100
376.400	2.299	0.100
376.500	-2.197	0.100
376.600	9.408	0.100
376.700	2.147	0.100
376.800	-7.687	0.100
376.900	-7.032	0.100
377.000	8.740	0.100
377.100	10.611	0.100
377.200	-10.178	0.100
377.300	-11.909	0.100
377.400	0.682	0.100
377.500	10.502	0.100
377.600	0.628	0.100
377.700	-2.568	0.100
377.800	-14.934	0.100
377.900	-17.287	0.100
378.000	-0.885	0.100
378.100	7.993	0.100
378.200	-2.807	0.100
378.300	-2.457	0.100
378.400	6.578	0.100
378.500	-5.857	0.100
378.600	-2.208	0.100
378.700	-5.557	0.100
378.800	-2.297	0.100
378.900	-2.392	0.100
379.000	-1.307	0.100
379.100	-0.118	0.100
379.200	-10.221	0.100
379.300	-3.771	0.100
379.400	0.621	0.100
379.500	0.439	0.100
379.600	2.428	0.100
379.700	3.118	0.100
379.800	-6.934	0.100
379.900	3.370	0.100
380.000	-9.981	0.100
380.100	-4.723	0.100
380.200	2.128	0.100
380.300	-0.294	0.100
380.400	-3.421	0.100
380.500	8.579	0.100
380.600	-4.434	0.100
380.700	4.460	0.100
380.800	-11.999	0.100
380.900	5.310	0.100
381.000	-2.802	0.100
381.100	-1.232	0.100
381.200	-4.240	0.100
381.300	-11.217	0.100
381.400	-4.635	0.100
381.500	-10.695	0.100
381.600	6.330	0.100
381.700	2.871	0.100
381.800	-6.285	0.100
381.900	-2.937	0.100
382.000	-4.709	0.100
382.100	7.512	0.100
382.200	2.944	0.100
382.300	3.412	0.100
382.400	3.086	0.100
382.500	-3.371	0.100
382.600	-3.961	0.100
382.700	0.917	0.100
382.800	-3.671	0.100
382.900	2.317	0.100
383.000	0.861	0.100
383.100	-2.885	0.100
383.200	-5.699	0.100
383.300	-3.665	0.100
383.400	-5.250	0.100
383.500	-1.011	0.100
383.600	0.832	0.100
383.700	-0.645	0.100
383.800	-1.942	0.100
383.900	-5.758	0.100
384.000	-9.486	0.100
384.100	4.133	0.100
384.200	-3.679	0.100
384.300	-0.753	0.100
384.400	-2.950	0.100
384.500	-2.329	0.100
384.600	2.269	0.100
384.700	8.374	0.100
384.800	1.092	0.100
384.900	-3.196	0.100
385.000	-2.419	0.100
385.100	-4.021	0.100
385.200	4.442	0.100
385.300	-3.828	0.100
385.400	-5.999	0.100
385.500	0.176	0.100
385.600	-1.028	0.100
385.700	-13.922	0.100
385.800	7.214	0.100
385.900	-7.752	0.100
386.000	0.384	0.100
386.100	-2.491	0.100
386.200	0.771	0.100
386.300	-4.080	0.100
386.400	-13.830	0.100
386.500	-3.223	0.100
386.600	-7.057	0.100
386.700	-12.132	0.100
386.800	0.178	0.100
386.900	2.860	0.100
387.000	3.123	0.100
387.100	-8.678	0.100
387.200	0.697	0.100
387.300	2.406	0.100
387.400	-5.301	0.100
387.500	0.820	0.100
387.600	1.779	0.100
387.700	4.696	0.100
387.800	-1.984	0.100
387.900	-2.454	0.100
388.000	-1.992	0.100
388.100	-0.369	0.100
388.200	-7.813	0.100
388.300	-0.860	0.100
388.400	-5.231	0.100
388.500	-2.135	0.100
388.600	-1.717	0.100
388.700	2.373	0.100
388.800	-13.255	0.100
388.900	0.297	0.100
389.000	-7.153	0.100
389.100	-8.786	0.100
389.200	-1.732	0.100
389.300	-5.454	0.100
389.400	3.443	0.100
389.500	2.167	0.100
389.600	-5.320	0.100
389.700	-6.937	0.100
389.800	0.232	0.100
389.900	-2.581	0.100
390.000	-5.435	0.100
390.100	-0.152	0.100
390.200	2.919	0.100
390.300	-6.731	0.100
390.400	-2.752	0.100
390.500	-6.216	0.100
390.600	8.260	0.100
390.700	1.762	0.100
390.800	-7.798	0.100
390.900	1.015	0.100
391.000	0.088	0.100
391.100	-3.795	0.100
391.200	-4.249	0.100
391.300	-6.548	0.100
391.400	-2.110	0.100
391.500	-1.932	0.100
391.600	-3.034	0.100
391.700	-5.511	0.100
391.800	-4.519	0.100
391.900	-1.178	0.100
392.000	-4.994	0.100
392.100	-3.296	0.100
392.200	-8.572	0.100
392.300	0.355	0.100
392.400	-0.604	0.100
392.500	8.235	0.100
392.600	-6.689	0.100
392.700	-3.884	0.100
392.800	-10.414	0.100
392.900	-9.026	0.100
393.000	12.068	0.100
393.100	0.978	0.100
393.200	0.914	0.100
393.300	1.449	0.100
393.400	-0.199	0.100
393.500	-1.181	0.100
393.600	-12.615	0.100
393.700	5.632	0.100
393.800	-3.378	0.100
393.900	-0.340	0.100
394.000	5.974	0.100
394.100	-7.419	0.100
394.200	-8.118	0.100
394.300	-4.729	0.100
394.400	0.658	0.100
394.500	1.771	0.100
394.600	-6.693	0.100
394.700	-4.360	0.100
394.800	-19.422	0.100
394.900	-1.749	0.100
395.000	7.814	0.100
395.100	4.829	0.100
395.200	-3.131	0.100
395.300	-7.531	0.100
395.400	-1.761	0.100
395.500	0.680	0.100
395.600	-1.276	0.100
395.700	-8.920	0.100
395.800	2.769	0.100
395.900	7.865	0.100
396.000	-5.578	0.100
396.100	-7.029	0.100
396.200	-1.095	0.100
396.300	5.162	0.100
396.400	-16.265	0.100
396.500	-4.918	0.100
396.600	2.420	0.100
396.700	-5.506	0.100
396.800	-2.087	0.100
396.900	-6.431	0.100
397.000	-12.954	0.100
397.100	-2.267	0.100
397.200	7.366	0.100
397.300	-1.485	0.100
397.400	-3.479	0.100
397.500	3.082	0.100
397.600	-1.597	0.100
397.700	-8.001	0.100
397.800	-2.015	0.100
397.900	-6.029	0.100
398.000	-0.347	0.100
398.100	-2.820	0.100
398.200	-1.381	0.100
398.300	-10.547	0.100
398.400	-10.490	0.100
398.500	-4.772	0.100
398.600	-6.554	0.100
398.700	3.347	0.100
398.800	-8.577	0.100
398.900	-4.611	0.100
399.000	-7.933	0.100
399.100	-8.566	0.100
399.200	-8.483	0.100
399.300	-2.901	0.100
399.400	-6.124	0.100
399.500	3.519	0.100
399.600	-5.423	0.100
399.700	-14.767	0.100
399.800	-1.298	0.100
399.900	-1.145	0.100
400.000	-2.544	0.100
400.100	6.747	0.100
400.200	2.003	0.100
400.300	0.167	0.100
400.400	-15.216	0.100
400.500	-7.759	0.100
400.600	4.414	0.100
400.700	-0.366	0.100
400.800	4.063	0.100
400.900	-1.073	0.100
401.000	-9.476	0.100
401.100	-7.475	0.100
401.200	-4.688	0.100
401.300	-1.211	0.100
401.400	2.192	0.100
401.500	-3.780	0.100
401.600	-12.271	0.100
401.700	-4.892	0.100
401.800	-8.525	0.100
401.900	-1.167	0.100
402.000	-6.407	0.100
402.100	-2.339	0.100
402.200	4.678	0.100
402.300	-6.119	0.100
402.400	-2.401	0.100
402.500	-4.811	0.100
402.600	1.541	0.100
402.700	2.241	0.100
402.800	-3.955	0.100
402.900	-10.782	0.100
403.000	-2.130	0.100
403.100	0.091	0.100
403.200	-12.935	0.100
403.300	-0.968	0.100
403.400	-8.731	0.100
403.500	-1.262	0.100
403.600	3.843	0.100
403.700	1.416	0.100
403.800	-12.585	0.100
403.900	-3.603	0.100
404.000	-8.093	0.100
404.100	-8.651	0.100
404.200	-3.635	0.100
404.300	-8.677	0.100
404.400	-4.775	0.100
404.500	-1.938	0.100
404.600	-9.228	0.100
404.700	4.664	0.100
404.800	5.972	0.100
404.900	1.809	0.100
405.000	2.186	0.100
405.100	3.115	0.100
405.200	-3.431	0.100
405.300	-7.413	0.100
405.400	1.892	0.100
405.500	-8.968	0.100
405.600	-4.817	0.100
405.700	11.475	0.100
405.800	-8.385	0.100
405.900	-14.784	0.100
406.000	-6.648	0.100
406.100	-2.981	0.100
406.200	-5.773	0.100
406.300	3.235	0.100
406.400	0.107	0.100
406.500	5.380	0.100
406.600	-12.417	0.100
406.700	-7.341	0.100
406.800	-5.906	0.100
406.900	-5.991	0.100
407.000	5.694	0.100
407.100	-7.997	0.100
407.200	-15.620	0.100
407.300	3.180	0.100
407.400	-8.024	0.100
407.500	-0.476	0.100
407.600	-8.292	0.100
407.700	-3.338	0.100
407.800	-4.063	0.100
407.900	-14.972	0.100
408.000	-9.681	0.100
408.100	-8.347	0.100
408.200	-5.563	0.100
408.300	12.245	0.100
408.400	2.909	0.100
408.500	-6.286	0.100
408.600	-4.373	0.100
408.700	-6.567	0.100
408.800	-8.334	0.100
408.900	-5.464	0.100
409.000	0.276	0.100
409.100	-7.209	0.100
409.200	-10.892	0.100
409.300	-7.780	0.100
409.400	-9.121	0.100
409.500	-1.462	0.100
409.600	-9.358	0.100
409.700	-13.397	0.100
409.800	-10.938	0.100
409.900	2.749	0.100
410.000	5.787	0.100
410.100	-8.879	0.100
410.200	-1.473	0.100
410.300	-11.517	0.100
410.400	-18.786	0.100
410.500	-1.327	0.100
410.600	-10.345	0.100
410.700	-1.147	0.100
410.800	-0.604	0.100
410.900	-15.948	0.100
411.000	0.732	0.100
411.100	-8.697	0.100
411.200	-2.182	0.100
411.300	-2.697	0.100
411.400	-6.910	0.100
411.500	-7.607	0.100
411.600	-8.515	0.100
411.700	3.735	0.100
411.800	-0.530	0.100
411.900	5.611	0.100
412.000	-3.943	0.100
412.100	-2.486	0.100
412.200	-9.135	0.100
412.300	-2.652	0.100
412.400	-2.408	0.100
412.500	-11.413	0.100
412.600	-7.896	0.100
412.700	10.987	0.100
412.800	-8.656	0.100
412.900	-8.766	0.100
413.000	2.871	0.100
413.100	-7.257	0.100
413.200	-3.597	0.100
413.300	-2.819	0.100
413.400	-8.130	0.100
413.500	-14.740	0.100
413.600	-3.159	0.100
413.700	5.734	0.100
413.800	-0.001	0.100
413.900	-6.320	0.100
414.000	0.549	0.100
414.100	-4.803	0.100
414.200	-6.596	0.100
414.300	-8.448	0.100
414.400	4.704	0.100
414.500	-2.284	0.100
414.600	-5.499	0.100
414.700	-4.810	0.100
414.800	0.575	0.100
414.900	-12.610	0.100
415.000	-6.718	0.100
415.100	-9.548	0.100
415.200	-6.845	0.100
415.300	-7.760	0.100
415.400	-16.067	0.100
415.500	-4.410	0.100
415.600	-5.795	0.100
415.700	4.946	0.100
415.800	-10.068	0.100
415.900	-2.736	0.100
416.000	1.434	0.100
416.100	-16.086	0.100
416.200	-0.776	0.100
416.300	-5.438	0.100
416.400	9.314	0.100
416.500	-2.018	0.100
416.600	-6.918	0.100
416.700	-4.981	0.100
416.800	-9.336	0.100
416.900	-5.582	0.100
417.000	-11.199	0.100
417.100	-9.327	0.100
417.200	-10.443	0.100
417.300	-1.627	0.100
417.400	-1.905	0.100
417.500	5.310	0.100
417.600	-8.493	0.100
417.700	-7.240	0.100
417.800	-1.928	0.100
417.900	2.817	0.100
418.000	-7.740	0.100
418.100	-4.916	0.100
418.200	-4.241	0.100
418.300	-6.287	0.100
418.400	-15.016	0.100
418.500	-10.778	0.100
418.600	-3.815	0.100
418.700	-2.896	0.100
418.800	6.294	0.100
418.900	-6.204	0.100
419.000	-5.288	0.100
419.100	-14.351	0.100
419.200	-16.138	0.100
419.300	-0.355	0.100
419.400	-4.547	0.100
419.500	-4.646	0.100
419.600	3.449	0.100
419.700	-5.973	0.100
419.800	-11.798	0.100
419.900	-3.314	0.100
420.000	-12.108	0.100
420.100	-3.462	0.100
420.200	0.879	0.100
420.300	-4.045	0.100
420.400	-0.065	0.100
420.500	1.351	0.100
420.600	-5.273	0.100
420.700	-7.040	0.100
420.800	-14.599	0.100
420.900	-0.040	0.100
421.000	-3.805	0.100
421.100	-1.849	0.100
421.200	-4.884	0.100
421.300	-5.868	0.100
421.400	-2.385	0.100
421.500	-7.733	0.100
421.600	-15.572	0.100
421.700	-5.637	0.100
421.800	-3.403	0.100
421.900	-5.407	0.100
422.000	-4.384	0.100
422.100	-4.769	0.100
422.200	-16.579	0.100
422.300	-5.780	0.100
422.400	-3.647	0.100
422.500	-3.163	0.100
422.600	-15.384	0.100
422.700	-10.077	0.100
422.800	-2.814	0.100
422.900	-7.628	0.100
423.000	1.153	0.100
423.100	-2.465	0.100
423.200	-3.839	0.100
423.300	-10.307	0.100
423.400	-9.790	0.100
423.500	-0.832	0.100
423.600	-1.627	0.100
423.700	3.046	0.100
423.800	-1.332	0.100
423.900	-1.655	0.100
424.000	-5.719	0.100
424.100	0.122	0.100
424.200	-20.892	0.100
424.300	0.125	0.100
424.400	-10.700	0.100
424.500	-15.294	0.100
424.600	-18.540	0.100
424.700	-7.059	0.100
424.800	2.819	0.100
424.900	-7.178	0.100
425.000	-8.609	0.100
425.100	-3.777	0.100
425.200	-1.133	0.100
425.300	-4.367	0.100
425.400	-16.148	0.100
425.500	-14.294	0.100
425.600	0.420	0.100
425.700	-7.301	0.100
425.800	-0.383	0.100
425.900	0.436	0.100
426.000	-8.521	0.100
426.100	-12.982	0.100
426.200	-5.164	0.100
426.300	0.165	0.100
426.400	-8.843	0.100
426.500	-3.846	0.100
426.600	0.483	0.100
426.700	-10.090	0.100
426.800	-4.240	0.100
426.900	-4.686	0.100
427.000	-5.857	0.100
427.100	-4.903	0.100
427.200	-4.048	0.100
427.300	-8.895	0.100
427.400	-14.215	0.100
427.500	-8.500	0.100
427.600	-6.385	0.100
427.700	6.273	0.100
427.800	-1.749	0.100
427.900	-12.350	0.100
428.000	3.877	0.100
428.100	10.534	0.100
428.200	-11.948	0.100
428.300	-9.978	0.100
428.400	-10.890	0.100
428.500	-4.921	0.100
428.600	-7.281	0.100
428.700	-10.598	0.100
428.800	-8.642	0.100
428.900	-5.529	0.100
429.000	-14.429	0.100
429.100	-12.098	0.100
429.200	-5.757	0.100
429.300	4.823	0.100
429.400	0.749	0.100
429.500	-5.827	0.100
429.600	-5.263	0.100
429.700	-1.203	0.100
429.800	-8.850	0.100
429.900	-14.249	0.100
430.000	-7.045	0.100
430.100	-15.483	0.100
430.200	-4.191	0.100
430.300	-8.997	0.100
430.400	-0.653	0.100
430.500	0.217	0.100
430.600	-6.710	0.100
430.700	-8.914	0.100
430.800	-11.779	0.100
430.900	-6.736	0.100
431.000	-7.639	0.100
431.100	-9.078	0.100
431.200	-12.117	0.100
431.300	-7.344	0.100
431.400	-3.218	0.100
431.500	4.230	0.100
431.600	-3.569	0.100
431.700	-6.442	0.100
431.800	-11.807	0.100
431.900	-10.968	0.100
432.000	-0.797	0.100
432.100	-3.282	0.100
432.200	-11.650	0.100
432.300	-2.018	0.100
432.400	-11.141	0.100
432.500	-5.722	0.100
432.600	-17.451	0.100
432.700	-9.148	0.100
432.800	-6.235	0.100
432.900	-9.650	0.100
433.000	5.503	0.100
433.100	-4.400	0.100
433.200	-7.655	0.100
433.300	-8.692	0.100
433.400	-8.258	0.100
433.500	-4.361	0.100
433.600	-7.452	0.100
433.700	-9.816	0.100
433.800	-17.244	0.100
433.900	-7.244	0.100
434.000	-10.145	0.100
434.100	-7.267	0.100
434.200	-5.109	0.100
434.300	-4.381	0.100
434.400	-12.411	0.100
434.500	-10.187	0.100
434.600	-14.328	0.100
434.700	1.252	0.100
434.800	-6.272	0.100
434.900	-2.625	0.100
435.000	-7.451	0.100
435.100	-9.282	0.100
435.200	-13.012	0.100
435.300	-0.910	0.100
435.400	-9.194	0.100
435.500	-17.288	0.100
435.600	-5.664	0.100
435.700	-1.130	0.100
435.800	-12.413	0.100
435.900	-14.727	0.100
436.000	-4.206	0.100
436.100	-2.200	0.100
436.200	-14.838	0.100
436.300	-2.872	0.100
436.400	-12.932	0.100
436.500	-12.049	0.100
436.600	-4.064	0.100
436.700	3.607	0.100
436.800	-11.820	0.100
436.900	-1.220	0.100
437.000	-8.059	0.100
437.100	-11.462	0.100
437.200	-11.421	0.100
437.300	1.419	0.100
437.400	-5.548	0.100
437.500	-11.574	0.100
437.600	-8.607	0.100
437.700	-5.107	0.100
437.800	-11.101	0.100
437.900	-5.627	0.100
438.000	-10.697	0.100
438.100	3.911	0.100
438.200	-8.253	0.100
438.300	-5.123	0.100
438.400	-10.706	0.100
438.500	-10.502	0.100
438.600	-9.920	0.100
438.700	-9.314	0.100
438.800	-8.796	0.100
438.900	-17.017	0.100
439.000	-5.562	0.100
439.100	-5.655	0.100
439.200	-10.589	0.100
439.300	-11.085	0.100
439.400	-9.984	0.100
439.500	-12.554	0.100
439.600	-2.911	0.100
439.700	-2.583	0.100
439.800	-7.648	0.100
439.900	-6.485	0.100
440.000	1.236	0.100
440.100	-7.793	0.100
440.200	-6.986	0.100
440.300	-7.078	0.100
440.400	-11.594	0.100
440.500	-12.113	0.100
440.600	-2.352	0.100
440.700	0.505	0.100
440.800	-7.199	0.100
440.900	-15.489	0.100
441.000	-6.970	0.100
441.100	-5.838	0.100
441.200	-1.201	0.100
441.300	-12.151	0.100
441.400	-0.913	0.100
441.500	-7.606	0.100
441.600	-7.944	0.100
441.700	-6.150	0.100
441.800	-9.113	0.100
441.900	-4.443	0.100
442.000	-9.079	0.100
442.100	-11.531	0.100
442.200	-9.699	0.100
442.300	-5.544	0.100
442.400	-6.624	0.100
442.500	-1.523	0.100
442.600	-10.203	0.100
442.700	-3.616	0.100
442.800	-8.913	0.100
442.900	-10.979	0.100
443.000	-10.513	0.100
443.100	-7.163	0.100
443.200	-4.152	0.100
443.300	-12.593	0.100
443.400	0.876	0.100
443.500	-9.290	0.100
443.600	-6.597	0.100
443.700	-5.812	0.100
443.800	-7.080	0.100
443.900	-6.416	0.100
444.000	-3.558	0.100
444.100	-11.060	0.100
444.200	-11.810	0.100
444.300	-7.722	0.100
444.400	-17.500	0.100
444.500	2.135	0.100
444.600	-1.215	0.100
444.700	-7.971	0.100
444.800	-17.667	0.100
444.900	-3.883	0.100
445.000	-17.630	0.100
445.100	0.281	0.100
445.200	-7.966	0.100
445.300	-13.936	0.100
445.400	-5.187	0.100
445.500	-6.932	0.100
445.600	-9.220	0.100
445.700	-0.911	0.100
445.800	-5.614	0.100
445.900	-4.590	0.100
446.000	-14.764	0.100
446.100	-2.484	0.100
446.200	-14.721	0.100
446.300	0.197	0.100
446.400	-10.340	0.100
446.500	3.324	0.100
446.600	-3.643	0.100
446.700	-8.392	0.100
446.800	-7.216	0.100
446.900	-11.255	0.100
447.000	-16.572	0.100
447.100	-4.366	0.100
447.200	-11.640	0.100
447.300	-15.170	0.100
447.400	-9.163	0.100
447.500	-7.804	0.100
447.600	-6.735	0.100
447.700	-2.929	0.100
447.800	-5.822	0.100
447.900	-9.830	0.100
448.000	-8.593	0.100
448.100	-18.378	0.100
448.200	3.770	0.100
448.300	-1.423	0.100
448.400	-12.714	0.100
448.500	-16.720	0.100
448.600	-13.976	0.100
448.700	-1.687	0.100
448.800	-6.095	0.100
448.900	-8.819	0.100
449.000	-10.217	0.100
449.100	-0.408	0.100
449.200	-5.067	0.100
449.300	-6.066	0.100
449.400	-3.836	0.100
449.500	-4.140	0.100
449.600	-5.707	0.100
449.700	-10.054	0.100
449.800	-14.466	0.100
449.900	-9.368	0.100
450.000	-16.738	0.100
450.100	2.321	0.100
450.200	-7.094	0.100
450.300	-10.075	0.100
450.400	-11.448	0.100
450.500	4.209	0.100
450.600	-6.111	0.100
450.700	-1.252	0.100
450.800	0.838	0.100
450.900	-9.660	0.100
451.000	-10.107	0.100
451.100	-15.660	0.100
451.200	-0.577	0.100
451.300	-9.558	0.100
451.400	-3.220	0.100
451.500	-4.551	0.100
451.600	-0.460	0.100
451.700	-5.781	0.100
451.800	0.939	0.100
451.900	-3.330	0.100
452.000	-14.038	0.100
452.100	-3.569	0.100
452.200	-12.258	0.100
452.300	-8.407	0.100
452.400	-10.856	0.100
452.500	-5.179	0.100
452.600	-15.898	0.100
452.700	-12.536	0.100
452.800	-3.975	0.100
452.900	-0.173	0.100
453.000	-17.952	0.100
453.100	-16.037	0.100
453.200	-7.783	0.100
453.300	-7.237	0.100
453.400	-6.375	0.100
453.500	-12.735	0.100
453.600	-10.127	0.100
453.700	-16.495	0.100
453.800	-10.615	0.100
453.900	-14.199	0.100
454.000	-10.759	0.100
454.100	-9.450	0.100
454.200	0.790	0.100
454.300	-0.983	0.100
454.400	-0.452	0.100
454.500	-8.049	0.100
454.600	-11.724	0.100
454.700	-4.602	0.100
454.800	-4.373	0.100
454.900	-11.284	0.100
455.000	-10.366	0.100
455.100	-7.380	0.100
455.200	-1.539	0.100
455.300	-9.986	0.100
455.400	-2.969	0.100
455.500	-5.001	0.100
455.600	-8.325	0.100
455.700	-9.364	0.100
455.800	-7.807	0.100
455.900	-6.703	0.100
456.000	-2.997	0.100
456.100	-12.324	0.100
456.200	-3.505	0.100
456.300	-7.232	0.100
456.400	-16.097	0.100
456.500	-10.930	0.100
456.600	-1.991	0.100
456.700	-8.495	0.100
456.800	9.137	0.100
456.900	-11.187	0.100
457.000	-4.397	0.100
457.100	-14.818	0.100
457.200	-5.757	0.100
457.300	-5.150	0.100
457.400	-10.757	0.100
457.500	-9.376	0.100
457.600	-4.455	0.100
457.700	-1.856	0.100
457.800	-3.614	0.100
457.900	-8.291	0.100
458.000	-12.590	0.100
458.100	-15.139	0.100
458.200	-15.017	0.100
458.300	-10.406	0.100
458.400	-2.279	0.100
458.500	-4.347	0.100
458.600	-2.903	0.100
458.700	-11.768	0.100
458.800	-5.777	0.100
458.900	-3.872	0.100
459.000	-8.282	0.100
459.100	-15.054	0.100
459.200	-14.358	0.100
459.300	-18.700	0.100
459.400	-3.745	0.100
459.500	-1.048	0.100
459.600	0.937	0.100
459.700	-5.113	0.100
459.800	-13.143	0.100
459.900	-7.586	0.100
460.000	-10.169	0.100
460.100	-11.625	0.100
460.200	4.412	0.100
460.300	-7.632	0.100
460.400	-9.383	0.100
460.500	-7.087	0.100
460.600	-6.051	0.100
460.700	-9.226	0.100
460.800	-19.165	0.100
460.900	-6.485	0.100
461.000	-2.668	0.100
461.100	-14.212	0.100
461.200	-5.845	0.100
461.300	0.084	0.100
461.400	-5.590	0.100
461.500	-12.975	0.100
461.600	-7.432	0.100
461.700	-0.011	0.100
461.800	-14.031	0.100
461.900	-9.784	0.100
462.000	-7.712	0.100
462.100	-11.379	0.100
462.200	-1.565	0.100
462.300	-6.664	0.100
462.400	-10.325	0.100
462.500	-10.927	0.100
462.600	-0.299	0.100
462.700	-3.836	0.100
462.800	-2.402	0.100
462.900	-1.966	0.100
463.000	-3.029	0.100
463.100	-14.085	0.100
463.200	-14.581	0.100
463.300	-9.651	0.100
463.400	-10.053	0.100
463.500	-11.593	0.100
463.600	2.984	0.100
463.700	-3.328	0.100
463.800	-13.813	0.100
463.900	-11.292	0.100
464.000	2.820	0.100
464.100	-10.722	0.100
464.200	-8.914	0.100
464.300	-10.530	0.100
464.400	-7.947	0.100
464.500	-4.023	0.100
464.600	-2.061	0.100
464.700	-2.338	0.100
464.800	-14.938	0.100
464.900	-11.440	0.100
465.000	-11.555	0.100
465.100	-0.829	0.100
465.200	-12.027	0.100
465.300	-1.044	0.100
465.400	-6.159	0.100
465.500	-9.744	0.100
465.600	-7.313	0.100
465.700	-0.578	0.100
465.800	-7.620	0.100
465.900	1.022	0.100
466.000	-4.814	0.100
466.100	-13.526	0.100
466.200	-8.130	0.100
466.300	-11.204	0.100
466.400	-0.126	0.100
466.500	0.772	0.100
466.600	-0.547	0.100
466.700	-14.097	0.100
466.800	-3.314	0.100
466.900	-7.579	0.100
467.000	-2.862	0.100
467.100	-3.441	0.100
467.200	-9.228	0.100
467.300	-11.518	0.100
467.400	-8.498	0.100
467.500	-17.321	0.100
467.600	-2.646	0.100
467.700	-3.480	0.100
467.800	-12.382	0.100
467.900	-2.344	0.100
468.000	-3.724	0.100
468.100	-3.268	0.100
468.200	-6.245	0.100
468.300	-6.602	0.100
468.400	-12.795	0.100
468.500	-9.275	0.100
468.600	0.625	0.100
468.700	-4.564	0.100
468.800	-8.904	0.100
468.900	-9.297	0.100
469.000	-3.066	0.100
469.100	-13.156	0.100
469.200	-7.901	0.100
469.300	-10.338	0.100
469.400	-16.914	0.100
469.500	-9.013	0.100
469.600	4.447	0.100
469.700	-14.907	0.100
469.800	-3.274	0.100
469.900	-21.492	0.100
470.000	-8.484	0.100
470.100	-6.674	0.100
470.200	-9.765	0.100
470.300	-8.623	0.100
470.400	-5.090	0.100
470.500	-6.885	0.100
470.600	-15.684	0.100
470.700	-14.332	0.100
470.800	-9.149	0.100
470.900	-12.156	0.100
471.000	-7.557	0.100
471.100	-15.426	0.100
471.200	-6.345	0.100
471.300	-3.827	0.100
471.400	1.501	0.100
471.500	-4.903	0.100
471.600	-7.886	0.100
471.700	-15.929	0.100
471.800	-12.459	0.100
471.900	-14.734	0.100
472.000	-11.800	0.100
472.100	-6.289	0.100
472.200	-8.761	0.100
472.300	-2.224	0.100
472.400	-12.566	0.100
472.500	-6.585	0.100
472.600	-14.264	0.100
472.700	-3.290	0.100
472.800	-0.802	0.100
472.900	-9.088	0.100
473.000	-15.872	0.100
473.100	-7.371	0.100
473.200	-9.727	0.100
473.300	-4.483	0.100
473.400	-2.197	0.100
473.500	-6.888	0.100
473.600	-3.998	0.100
473.700	-19.706	0.100
473.800	-4.495	0.100
473.900	-7.729	0.100
474.000	-9.234	0.100
474.100	-15.907	0.100
474.200	-10.477	0.100
474.300	-3.996	0.100
474.400	-4.355	0.100
474.500	-3.792	0.100
474.600	-11.996	0.100
474.700	1.673	0.100
474.800	-3.619	0.100
474.900	-10.010	0.100
475.000	-17.813	0.100
475.100	-9.448	0.100
475.200	-4.572	0.100
475.300	-5.303	0.100
475.400	-8.809	0.100
475.500	-8.973	0.100
475.600	-6.747	0.100
475.700	-15.622	0.100
475.800	-14.639	0.100
475.900	-1.571	0.100
476.000	-12.620	0.100
476.100	-9.518	0.100
476.200	-7.951	0.100
476.300	-9.655	0.100
476.400	-3.679	0.100
476.500	-11.585	0.100
476.600	-4.048	0.100
476.700	1.073	0.100
476.800	-10.606	0.100
476.900	-16.016	0.100
477.000	-12.703	0.100
477.100	-13.736	0.100
477.200	4.258	0.100
477.300	0.861	0.100
477.400	-12.665	0.100
477.500	-15.143	0.100
477.600	-6.470	0.100
477.700	0.243	0.100
477.800	-8.129	0.100
477.900	-6.303	0.100
478.000	-7.066	0.100
478.100	-13.751	0.100
478.200	-7.884	0.100
478.300	-8.690	0.100
478.400	-11.191	0.100
478.500	-7.976	0.100
478.600	1.818	0.100
478.700	-15.753	0.100
478.800	-9.510	0.100
478.900	-8.051	0.100
479.000	5.982	0.100
479.100	-4.336	0.100
479.200	-6.706	0.100
479.300	-9.778	0.100
479.400	-7.302	0.100
479.500	-7.742	0.100
479.600	-8.213	0.100
479.700	-11.375	0.100
479.800	-10.893	0.100
479.900	-11.503	0.100
480.000	-17.172	0.100
480.100	-9.060	0.100
480.200	-8.764	0.100
480.300	-11.426	0.100
480.400	-8.904	0.100
480.500	-6.113	0.100
480.600	-5.050	0.100
480.700	-8.071	0.100
480.800	-9.086	0.100
480.900	-6.587	0.100
481.000	-12.499	0.100
481.100	-8.691	0.100
481.200	-4.640	0.100
481.300	-8.949	0.100
481.400	-10.993	0.100
481.500	-0.591	0.100
481.600	-16.411	0.100
481.700	-1.499	0.100
481.800	0.228	0.100
481.900	-5.608	0.100
482.000	-9.777	0.100
482.100	0.593	0.100
482.200	-8.007	0.100
482.300	-11.466	0.100
482.400	-11.867	0.100
482.500	-5.126	0.100
482.600	-0.327	0.100
482.700	-0.498	0.100
482.800	1.315	0.100
482.900	-18.230	0.100
483.000	-6.959	0.100
483.100	-7.365	0.100
483.200	-3.494	0.100
483.300	-0.698	0.100
483.400	-2.845	0.100
483.500	-3.692	0.100
483.600	-3.067	0.100
483.700	-9.729	0.100
483.800	-5.995	0.100
483.900	-6.651	0.100
484.000	-8.669	0.100
484.100	-10.085	0.100
484.200	-12.597	0.100
484.300	-7.586	0.100
484.400	-3.946	0.100
484.500	-0.508	0.100
484.600	-12.785	0.100
484.700	-7.688	0.100
484.800	-16.376	0.100
484.900	-1.187	0.100
485.000	-6.158	0.100
485.100	-9.700	0.100
485.200	-3.895	0.100
485.300	0.849	0.100
485.400	-8.551	0.100
485.500	1.994	0.100
485.600	-7.967	0.100
485.700	-10.591	0.100
485.800	-3.842	0.100
485.900	-1.561	0.100
486.000	-4.979	0.100
486.100	-0.723	0.100
486.200	-6.962	0.100
486.300	-3.957	0.100
486.400	-2.711	0.100
486.500	-7.606	0.100
486.600	-1.603	0.100
486.700	-6.390	0.100
486.800	-0.874	0.100
486.900	5.884	0.100
487.000	-3.870	0.100
487.100	-3.888	0.100
487.200	-6.435	0.100
487.300	-10.735	0.100
487.400	-15.525	0.100
487.500	-18.206	0.100
487.600	-3.368	0.100
487.700	-12.857	0.100
487.800	-1.047	0.100
487.900	-0.758	0.100
488.000	-6.753	0.100
488.100	4.736	0.100
488.200	-7.620	0.100
488.300	-11.021	0.100
488.400	-1.387	0.100
488.500	-3.797	0.100
488.600	-11.422	0.100
488.700	-2.548	0.100
488.800	-2.241	0.100
488.900	-3.125	0.100
489.000	2.976	0.100
489.100	3.853	0.100
489.200	-13.128	0.100
489.300	-8.109	0.100
489.400	-17.575	0.100
489.500	-4.128	0.100
489.600	-13.973	0.100
489.700	-7.191	0.100
489.800	2.338	0.100
489.900	-8.508	0.100
490.000	-5.997	0.100
490.100	12.169	0.100
490.200	-6.951	0.100
490.300	-4.101	0.100
490.400	-2.091	0.100
490.500	-9.647	0.100
490.600	-1.816	0.100
490.700	-4.140	0.100
490.800	-2.303	0.100
490.900	-6.062	0.100
491.000	-7.082	0.100
491.100	-2.047	0.100
491.200	-3.582	0.100
491.300	-15.786	0.100
491.400	-6.038	0.100
491.500	-2.300	0.100
491.600	-9.293	0.100
491.700	-5.528	0.100
491.800	-3.295	0.100
491.900	-9.374	0.100
492.000	0.295	0.100
492.100	3.293	0.100
492.200	-0.717	0.100
492.300	4.125	0.100
492.400	-5.856	0.100
492.500	-6.608	0.100
492.600	-8.293	0.100
492.700	-4.006	0.100
492.800	-5.312	0.100
492.900	-7.546	0.100
493.000	-7.778	0.100
493.100	1.101	0.100
493.200	-7.366	0.100
493.300	-5.001	0.100
493.400	0.735	0.100
493.500	-3.482	0.100
493.600	1.371	0.100
493.700	-3.861	0.100
493.800	-11.019	0.100
493.900	-1.320	0.100
494.000	-5.029	0.100
494.100	-6.156	0.100
494.200	5.537	0.100
494.300	-10.807	0.100
494.400	-14.342	0.100
494.500	-3.184	0.100
494.600	7.504	0.100
494.700	4.235	0.100
494.800	-0.519	0.100
494.900	-12.435	0.100
495.000	-5.419	0.100
495.100	-7.725	0.100
495.200	-0.400	0.100
495.300	-6.982	0.101
495.400	0.420	0.100
495.500	-1.353	0.100
495.600	-3.115	0.101
495.700	-6.700	0.100
495.800	-6.249	0.100
495.900	-0.206	0.100
496.000	-9.230	0.100
496.100	-0.345	0.100
496.200	6.351	0.100
496.300	3.861	0.101
496.400	-1.078	0.101
496.500	-3.987	0.101
496.600	-6.789	0.100
496.700	-16.476	0.100
496.800	0.147	0.100
496.900	-8.963	0.100
497.000	-2.950	0.100
497.100	-3.686	0.100
497.200	-10.299	0.100
497.300	-0.661	0.100
497.400	-14.691	0.100
497.500	1.285	0.100
497.600	-1.431	0.101
497.700	-9.656	0.101
497.800	-3.563	0.101
497.900	-2.941	0.101
498.000	1.829	0.101
498.100	-3.802	0.100
498.200	-6.474	0.101
498.300	-10.332	0.100
498.400	0.004	0.101
498.500	3.146	0.100
498.600	-2.957	0.100
498.700	0.231	0.100
498.800	-14.065	0.100
498.900	-8.740	0.100
499.000	-6.999	0.100
499.100	-3.378	0.101
499.200	-8.092	0.101
499.300	-4.839	0.100
499.400	0.962	0.101
499.500	2.816	0.101
499.600	-8.097	0.101
499.700	-3.439	0.101
499.800	-0.707	0.101
499.900	-11.031	0.101
500.000	0.764	0.101
500.100	1.691	0.101
500.200	4.943	0.101
500.300	-5.936	0.101
500.400	-5.068	0.101
500.500	0.917	0.101
500.600	-7.413	0.101
500.700	-1.222	0.101
500.800	-3.196	0.101
500.900	-9.980	0.101
501.000	2.967	0.101
501.100	-1.637	0.101
501.200	-7.082	0.101
501.300	-7.339	0.101
501.400	7.449	0.101
501.500	0.739	0.101
501.600	-8.091	0.101
501.700	-5.355	0.101
501.800	-10.630	0.101
501.900	-4.091	0.101
502.000	-9.081	0.101
502.100	-2.323	0.101
502.200	4.713	0.101
502.300	-15.838	0.101
502.400	6.776	0.101
502.500	-9.331	0.101
502.600	5.036	0.101
502.700	-0.815	0.101
502.800	-19.487	0.101
502.900	0.621	0.101
503.000	-5.638	0.101
503.100	-7.762	0.101
503.200	3.482	0.101
503.300	4.613	0.101
503.400	2.012	0.101
503.500	-3.273	0.101
503.600	-10.430	0.101
503.700	-22.425	0.101
503.800	0.449	0.101
503.900	-10.886	0.101
504.000	-3.291	0.101
504.100	-1.157	0.101
504.200	-10.626	0.101
504.300	-7.234	0.101
504.400	-13.316	0.101
504.500	1.288	0.101
504.600	-2.931	0.101
504.700	4.293	0.101
504.800	0.893	0.101
504.900	-8.185	0.101
505.000	-3.105	0.101
505.100	-12.932	0.101
505.200	-4.249	0.101
505.300	-14.010	0.101
505.400	-7.661	0.101
505.500	0.249	0.101
505.600	3.948	0.101
505.700	-3.198	0.101
505.800	-9.832	0.101
505.900	-2.101	0.101
506.000	0.108	0.101
506.100	7.035	0.101
506.200	-3.597	0.101
506.300	-2.868	0.101
506.400	-7.055	0.101
506.500	-4.779	0.101
506.600	2.034	0.101
506.700	-0.187	0.101
506.800	-8.132	0.101
506.900	1.560	0.101
507.000	6.635	0.101
507.100	0.496	0.101
507.200	-5.011	0.101
507.300	-7.974	0.101
507.400	-5.773	0.101
507.500	1.668	0.101
507.600	-1.548	0.101
507.700	-2.391	0.101
507.800	-5.073	0.101
507.900	-8.857	0.101
508.000	-9.607	0.101
508.100	-3.279	0.101
508.200	10.247	0.101
508.300	-6.269	0.101
508.400	-2.733	0.101
508.500	-3.960	0.101
508.600	-3.318	0.101
508.700	4.237	0.101
508.800	0.070	0.101
508.900	3.282	0.101
509.000	2.141	0.101
509.100	-2.381	0.101
509.200	-3.195	0.101
509.300	-1.328	0.101
509.400	2.079	0.101
509.500	-12.961	0.101
509.600	-6.204	0.101
509.700	1.850	0.101
509.800	-7.741	0.101
509.900	-2.766	0.101
510.000	0.355	0.101
510.100	6.984	0.101
510.200	2.467	0.101
510.300	0.168	0.101
510.400	-2.015	0.101
510.500	-13.126	0.101
510.600	-3.152	0.101
510.700	2.833	0.101
510.800	-8.217	0.101
510.900	-3.422	0.101
511.000	3.170	0.101
511.100	0.546	0.101
511.200	-5.814	0.101
511.300	-3.411	0.101
511.400	-10.280	0.101
511.500	5.473	0.101
511.600	-1.441	0.101
511.700	3.675	0.101
511.800	-10.491	0.101
511.900	-5.522	0.101
512.000	-15.136	0.101
512.100	-4.688	0.101
512.200	-2.050	0.101
512.300	-11.982	0.101
512.400	5.910	0.101
512.500	-6.422	0.101
512.600	-7.489	0.101
512.700	2.788	0.101
512.800	3.924	0.101
512.900	-1.464	0.101
513.000	5.078	0.101
513.100	-2.111	0.101
513.200	-0.754	0.101
513.300	2.720	0.101
513.400	-0.771	0.101
513.500	-8.815	0.101
513.600	-2.653	0.101
513.700	4.976	0.101
513.800	-3.795	0.101
513.900	-6.900	0.101
514.000	-12.947	0.101
514.100	-9.291	0.101
514.200	-7.218	0.101
514.300	1.965	0.101
514.400	-2.107	0.101
514.500	7.274	0.101
514.600	-0.399	0.101
514.700	-4.280	0.101
514.800	3.015	0.101
514.900	-9.343	0.101
515.000	-5.504	0.101
515.100	-3.454	0.101
515.200	-1.138	0.101
515.300	-8.667	0.101
515.400	-9.063	0.101
515.500	-9.073	0.101
515.600	-5.453	0.101
515.700	-0.773	0.101
515.800	-2.111	0.101
515.900	1.348	0.101
516.000	0.924	0.101
516.100	-10.289	0.101
516.200	-3.516	0.101
516.300	-0.152	0.101
516.400	2.260	0.101
516.500	-6.898	0.101
516.600	-2.772	0.101
516.700	2.089	0.101
516.800	-0.323	0.101
516.900	-4.043	0.101
517.000	-0.928	0.101
517.100	-10.067	0.101
517.200	-0.234	0.101
517.300	0.540	0.101
517.400	-11.455	0.101
517.500	6.594	0.101
517.600	-8.458	0.101
517.700	-2.507	0.101
517.800	-10.101	0.101
517.900	2.126	0.101
518.000	-3.699	0.101
518.100	-6.511	0.101
518.200	4.389	0.101
518.300	-0.016	0.101
518.400	2.781	0.101
518.500	-2.511	0.101
518.600	-3.201	0.101
518.700	-0.073	0.101
518.800	-2.155	0.101
518.900	0.973	0.101
519.000	-9.763	0.101
519.100	-3.103	0.101
519.200	-5.877	0.101
519.300	1.222	0.101
519.400	-5.273	0.101
519.500	-5.736	0.101
519.600	2.562	0.101
519.700	-2.367	0.101
519.800	-2.989	0.101
519.900	-9.402	0.101
520.000	-0.986	0.101
520.100	1.300	0.101
520.200	-5.319	0.101
520.300	-6.665	0.101
520.400	-1.502	0.101
520.500	-7.867	0.101
520.600	11.132	0.101
520.700	-4.281	0.101
520.800	-9.500	0.101
520.900	4.517	0.101
521.000	3.339	0.101
521.100	-0.812	0.101
521.200	-10.673	0.101
521.300	-3.254	0.101
521.400	9.890	0.101
521.500	-3.039	0.101
521.600	-9.543	0.101
521.700	-4.827	0.101
521.800	3.197	0.101
521.900	-5.249	0.101
522.000	-14.361	0.101
522.100	-0.674	0.101
522.200	1.495	0.101
522.300	-6.632	0.101
522.400	0.033	0.101
522.500	2.345	0.101
522.600	-4.477	0.101
522.700	-8.084	0.101
522.800	1.048	0.101
522.900	-0.869	0.101
523.000	-11.288	0.101
523.100	5.407	0.101
523.200	0.761	0.101
523.300	0.907	0.101
523.400	-6.509	0.101
523.500	0.685	0.101
523.600	-9.132	0.101
523.700	-4.236	0.101
523.800	4.648	0.101
523.900	-8.024	0.101
524.000	1.836	0.101
524.100	5.077	0.101
524.200	-4.803	0.101
524.300	-9.903	0.101
524.400	1.954	0.101
524.500	-1.559	0.101
524.600	7.995	0.101
524.700	-10.121	0.101
524.800	5.350	0.101
524.900	0.844	0.101
525.000	7.211	0.101
525.100	-0.580	0.101
525.200	-9.106	0.101
525.300	-6.073	0.101
525.400	0.254	0.101
525.500	2.168	0.101
525.600	-4.193	0.101
525.700	-0.037	0.101
525.800	-2.817	0.101
525.900	1.009	0.101
526.000	-7.603	0.101
526.100	1.324	0.101
526.200	9.443	0.101
526.300	-6.259	0.101
526.400	0.692	0.101
526.500	1.641	0.101
526.600	0.403	0.101
526.700	3.116	0.101
526.800	5.219	0.101
526.900	1.091	0.101
527.000	-2.274	0.101
527.100	1.444	0.101
527.200	1.337	0.101
527.300	4.921	0.101
527.400	-8.376	0.101
527.500	-2.175	0.101
527.600	1.082	0.101
527.700	-12.581	0.101
527.800	-3.730	0.101
527.900	2.286	0.101
528.000	-1.438	0.101
528.100	6.155	0.101
528.200	-3.973	0.101
528.300	4.669	0.101
528.400	7.627	0.101
528.500	-8.118	0.101
528.600	-4.611	0.101
528.700	-0.874	0.101
528.800	4.063	0.101
528.900	0.062	0.101
529.000	4.174	0.101
529.100	-14.938	0.101
529.200	2.498	0.101
529.300	5.876	0.101
529.400	8.671	0.101
529.500	-4.057	0.101
529.600	3.356	0.101
529.700	-6.380	0.101
529.800	-4.395	0.101
529.900	-4.309	0.101
530.000	4.676	0.101
530.100	1.814	0.101
530.200	-6.118	0.101
530.300	6.157	0.101
530.400	-0.879	0.101
530.500	4.214	0.101
530.600	-1.233	0.101
530.700	-9.723	0.101
530.800	-0.381	0.101
530.900	-0.771	0.101
531.000	-4.802	0.101
531.100	0.796	0.101
531.200	-4.921	0.101
531.300	-5.413	0.101
531.400	8.020	0.101
531.500	9.125	0.101
531.600	-6.590	0.101
531.700	-5.314	0.101
531.800	-3.270	0.101
531.900	4.129	0.101
532.000	2.527	0.101
532.100	-3.809	0.101
532.200	5.522	0.101
532.300	2.520	0.101
532.400	4.885	0.101
532.500	-10.248	0.101
532.600	-0.176	0.101
532.700	4.787	0.101
532.800	-2.916	0.101
532.900	-10.400	0.101
533.000	5.328	0.101
533.100	-2.580	0.101
533.200	-6.269	0.101
533.300	-1.419	0.101
533.400	11.847	0.101
533.500	4.457	0.101
533.600	0.928	0.101
533.700	-2.402	0.101
533.800	-1.347	0.101
533.900	-7.262	0.101
534.000	-5.374	0.101
534.100	2.512	0.101
534.200	7.064	0.101
534.300	4.823	0.101
534.400	-7.602	0.101
534.500	-6.595	0.101
534.600	-0.340	0.101
534.700	1.995	0.101
534.800	3.421	0.101
534.900	-3.817	0.100
535.000	-0.221	0.100
535.100	-12.412	0.100
535.200	-7.022	0.100
535.300	0.047	0.100
535.400	0.259	0.100
535.500	0.019	0.100
535.600	-3.427	0.100
535.700	5.018	0.100
535.800	-4.710	0.100
535.900	-8.214	0.100
536.000	0.362	0.100
536.100	5.399	0.100
536.200	0.659	0.100
536.300	-4.001	0.100
536.400	-2.546	0.100
536.500	-9.602	0.100
536.600	-6.533	0.100
536.700	-0.564	0.100
536.800	-0.540	0.100
536.900	3.456	0.100
537.000	-0.910	0.100
537.100	-6.541	0.100
537.200	-3.867	0.100
537.300	2.586	0.100
537.400	0.770	0.100
537.500	-7.667	0.100
537.600	-1.959	0.100
537.700	-2.390	0.100
537.800	1.589	0.100
537.900	-5.303	0.100
538.000	-0.967	0.100
538.100	1.030	0.100
538.200	4.609	0.100
538.300	-6.949	0.100
538.400	-1.256	0.100
538.500	8.762	0.100
538.600	8.324	0.100
538.700	3.103	0.100
538.800	-3.243	0.100
538.900	-13.470	0.100
539.000	-8.908	0.100
539.100	2.630	0.100
539.200	-7.383	0.100
539.300	8.173	0.100
539.400	-8.857	0.100
539.500	-5.909	0.100
539.600	6.381	0.100
539.700	-1.434	0.100
539.800	1.406	0.100
539.900	-5.651	0.100
540.000	-0.511	0.100
540.100	0.320	0.100
540.200	-3.398	0.100
540.300	-8.429	0.100
540.400	8.342	0.100
540.500	7.511	0.100
540.600	9.828	0.100
540.700	1.757	0.100
540.800	-3.503	0.100
540.900	-0.853	0.100
541.000	-4.665	0.100
541.100	-3.644	0.100
541.200	-7.396	0.100
541.300	-0.231	0.100
541.400	0.634	0.100
541.500	-4.179	0.100
541.600	-6.542	0.100
541.700	3.150	0.100
541.800	-7.034	0.100
541.900	-1.776	0.100
542.000	-8.152	0.100
542.100	3.818	0.100
542.200	5.201	0.100
542.300	0.876	0.100
542.400	-9.459	0.100
542.500	-9.472	0.100
542.600	-9.482	0.100
542.700	1.061	0.100
542.800	6.109	0.100
542.900	-0.925	0.100
543.000	0.425	0.100
543.100	1.966	0.100
543.200	-4.520	0.100
543.300	-4.545	0.100
543.400	-6.532	0.100
543.500	-0.456	0.100
543.600	7.376	0.100
543.700	-3.762	0.100
543.800	-10.576	0.100
543.900	5.382	0.100
544.000	2.811	0.100
544.100	1.641	0.100
544.200	-6.819	0.100
544.300	-8.707	0.100
544.400	3.443	0.100
544.500	-12.839	0.100
544.600	-4.252	0.100
544.700	4.473	0.100
544.800	2.262	0.100
544.900	-3.426	0.100
545.000	8.038	0.100
545.100	-1.104	0.100
545.200	-4.410	0.100
545.300	-8.151	0.100
545.400	3.353	0.100
545.500	-5.412	0.100
545.600	-0.096	0.100
545.700	10.332	0.100
545.800	-14.507	0.100
545.900	-5.631	0.100
546.000	-0.717	0.100
546.100	-6.111	0.100
546.200	2.432	0.100
546.300	0.262	0.100
546.400	-13.825	0.100
546.500	-5.121	0.100
546.600	-3.610	0.100
546.700	-0.945	0.100
546.800	9.570	0.100
546.900	-3.846	0.100
547.000	2.334	0.100
547.100	-4.420	0.100
547.200	-16.095	0.100
547.300	-0.170	0.100
547.400	-3.499	0.100
547.500	-8.622	0.100
547.600	1.899	0.100
547.700	-9.491	0.100
547.800	-0.976	0.100
547.900	-10.843	0.100
548.000	0.458	0.100
548.100	-11.197	0.100
548.200	-12.432	0.100
548.300	-17.125	0.100
548.400	-6.882	0.100
548.500	-3.735	0.100
548.600	-1.174	0.100
548.700	-11.412	0.100
548.800	-12.420	0.100
548.900	-9.594	0.100
549.000	-4.344	0.100
549.100	1.751	0.100
549.200	0.608	0.100
549.300	-9.848	0.100
549.400	-3.423	0.100
549.500	-6.349	0.100
549.600	-0.363	0.100
549.700	-0.170	0.100
549.800	0.924	0.100
549.900	-8.864	0.100
550.000	-3.359	0.100
550.100	-12.883	0.100
550.200	-7.252	0.100
550.300	-2.466	0.100
550.400	-2.341	0.100
550.500	-0.370	0.100
550.600	3.454	0.100
550.700	-8.191	0.100
550.800	-8.627	0.100
550.900	3.134	0.100
551.000	-2.178	0.100
551.100	-5.146	0.100
551.200	-0.681	0.100
551.300	-10.082	0.100
551.400	-7.050	0.100
551.500	-5.077	0.100
551.600	-6.357	0.100
551.700	2.632	0.100
551.800	-0.623	0.100
551.900	-0.234	0.100
552.000	-5.156	0.100
552.100	-11.455	0.100
552.200	2.180	0.100
552.300	-5.864	0.100
552.400	-7.539	0.100
552.500	-9.215	0.100
552.600	1.192	0.100
552.700	0.005	0.100
552.800	-13.069	0.100
552.900	-9.172	0.100
553.000	2.074	0.100
553.100	0.320	0.100
553.200	-4.089	0.100
553.300	-2.551	0.100
553.400	-6.675	0.100
553.500	-12.670	0.100
553.600	-7.570	0.100
553.700	-1.636	0.100
553.800	-5.060	0.100
553.900	-10.273	0.100
554.000	-8.120	0.100
554.100	1.320	0.100
554.200	-8.868	0.100
554.300	5.091	0.100
554.400	-3.481	0.100
554.500	-5.514	0.100
554.600	-15.510	0.100
554.700	-3.083	0.100
554.800	-3.776	0.100
554.900	-3.022	0.100
555.000	-1.348	0.100
555.100	-9.979	0.100
555.200	-0.278	0.100
555.300	1.122	0.100
555.400	-9.074	0.100
555.500	-4.377	0.100
555.600	-4.133	0.100
555.700	-4.073	0.100
555.800	-7.517	0.100
555.900	-7.800	0.100
556.000	6.745	0.100
556.100	-6.241	0.100
556.200	-0.507	0.100
556.300	-7.056	0.100
556.400	-8.902	0.100
556.500	-3.361	0.100
556.600	3.069	0.100
556.700	-2.584	0.100
556.800	-0.548	0.100
556.900	-6.767	0.100
557.000	6.591	0.100
557.100	-3.716	0.100
557.200	-1.968	0.100
557.300	-8.019	0.100
557.400	-3.503	0.100
557.500	-5.939	0.100
557.600	-15.142	0.100
557.700	-0.340	0.100
557.800	-0.493	0.100
557.900	-3.112	0.100
558.000	1.631	0.100
558.100	-10.941	0.100
558.200	-10.621	0.100
558.300	-15.211	0.100
558.400	-0.688	0.100
558.500	-1.477	0.100
558.600	-10.832	0.100
558.700	-7.628	0.100
558.800	-11.811	0.100
558.900	-11.289	0.100
559.000	-4.303	0.100
559.100	7.601	0.100
559.200	-8.186	0.100
559.300	-1.123	0.100
559.400	10.629	0.100
559.500	-8.389	0.100
559.600	-7.828	0.100
559.700	9.447	0.100
559.800	-1.246	0.100
559.900	-8.812	0.100
560.000	-8.407	0.100
560.100	-11.627	0.100
560.200	-5.306	0.100
560.300	-11.877	0.100
560.400	0.794	0.100
560.500	-7.334	0.100
560.600	-3.485	0.100
560.700	-1.354	0.100
560.800	1.581	0.100
560.900	-7.694	0.100
561.000	-3.454	0.100
561.100	-6.013	0.100
561.200	-8.649	0.100
561.300	-6.000	0.100
561.400	-4.068	0.100
561.500	-5.789	0.100
561.600	-10.161	0.100
561.700	-8.399	0.100
561.800	2.954	0.100
561.900	-9.315	0.100
562.000	2.321	0.100
562.100	-2.081	0.100
562.200	0.088	0.100
562.300	-11.481	0.100
562.400	-5.462	0.100
562.500	-12.842	0.100
562.600	-9.798	0.100
562.700	-6.159	0.100
562.800	6.339	0.100
562.900	-2.310	0.100
563.000	-2.324	0.100
563.100	-10.334	0.100
563.200	-10.759	0.100
563.300	-11.031	0.100
563.400	-1.171	0.100
563.500	-9.323	0.100
563.600	-1.868	0.100
563.700	-6.535	0.100
563.800	-0.953	0.100
563.900	-3.160	0.100
564.000	-6.246	0.100
564.100	-9.370	0.100
564.200	-6.533	0.100
564.300	-1.417	0.100
564.400	-7.075	0.100
564.500	-4.737	0.100
564.600	-0.521	0.100
564.700	-14.630	0.100
564.800	-7.753	0.100
564.900	-7.110	0.100
565.000	-4.814	0.100
565.100	-9.440	0.100
565.200	-5.761	0.100
565.300	-1.239	0.100
565.400	0.263	0.100
565.500	1.139	0.100
565.600	3.419	0.100
565.700	-2.033	0.100
565.800	-0.127	0.100
565.900	-14.103	0.100
566.000	-12.158	0.100
566.100	0.109	0.100
566.200	4.576	0.100
566.300	-7.189	0.100
566.400	-13.992	0.100
566.500	-9.574	0.100
566.600	-5.671	0.100
566.700	-0.217	0.100
566.800	-1.663	0.100
566.900	6.773	0.100
567.000	5.064	0.100
567.100	-1.232	0.100
567.200	-3.972	0.100
567.300	-3.619	0.100
567.400	-6.425	0.100
567.500	-17.241	0.100
567.600	-12.033	0.100
567.700	-3.688	0.100
567.800	3.892	0.100
567.900	-1.338	0.100
568.000	-12.804	0.100
568.100	-8.840	0.100
568.200	-3.609	0.100
568.300	-15.053	0.100
568.400	-7.998	0.100
568.500	1.924	0.100
568.600	-5.652	0.100
568.700	-12.515	0.100
568.800	-3.030	0.100
568.900	3.416	0.100
569.000	-3.923	0.100
569.100	-13.774	0.100
569.200	-16.710	0.100
569.300	-3.173	0.100
569.400	-3.826	0.100
569.500	-1.247	0.100
569.600	-6.636	0.100
569.700	-9.662	0.100
569.800	-2.367	0.100
569.900	-7.562	0.100
570.000	-2.904	0.100
570.100	-14.063	0.100
570.200	-14.448	0.100
570.300	-4.264	0.100
570.400	-2.602	0.100
570.500	-5.431	0.100
570.600	-5.902	0.100
570.700	-6.216	0.100
570.800	-4.575	0.100
570.900	-5.409	0.100
571.000	-0.879	0.100
571.100	4.274	0.100
571.200	-9.353	0.100
571.300	-9.554	0.100
571.400	-12.144	0.100
571.500	-9.252	0.100
571.600	-12.178	0.100
571.700	-4.266	0.100
571.800	-11.849	0.100
571.900	-10.731	0.100
572.000	-5.611	0.100
572.100	2.296	0.100
572.200	-0.577	0.100
572.300	-11.440	0.100
572.400	-2.819	0.100
572.500	-6.734	0.100
572.600	-8.298	0.100
572.700	-0.480	0.100
572.800	-1.636	0.100
572.900	-1.661	0.100
573.000	-6.001	0.100
573.100	-9.626	0.100
573.200	-2.081	0.100
573.300	-17.581	0.100
573.400	-0.831	0.100
573.500	-1.659	0.100
573.600	-2.156	0.100
573.700	1.667	0.100
573.800	-5.308	0.100
573.900	-3.317	0.100
574.000	-9.981	0.100
574.100	-1.547	0.100
574.200	0.608	0.100
574.300	-3.074	0.100
574.400	-5.533	0.100
574.500	-3.067	0.100
574.600	-13.900	0.100
574.700	-7.858	0.100
574.800	-8.693	0.100
574.900	-0.590	0.100
575.000	-5.278	0.100
575.100	-7.985	0.100
575.200	-1.315	0.100
575.300	-3.622	0.100
575.400	-11.004	0.100
575.500	-4.942	0.100
575.600	-1.074	0.100
575.700	-8.907	0.100
575.800	-7.748	0.100
575.900	-5.671	0.100
576.000	7.788	0.100
576.100	-14.708	0.100
576.200	-5.415	0.100
576.300	-8.109	0.100
576.400	5.947	0.100
576.500	-6.586	0.100
576.600	-0.775	0.100
576.700	-15.537	0.100
576.800	-10.245	0.100
576.900	-3.967	0.100
577.000	-2.816	0.100
577.100	-15.293	0.100
577.200	-4.567	0.100
577.300	-6.359	0.100
577.400	-21.144	0.100
577.500	-3.746	0.100
577.600	-7.949	0.100
577.700	-5.945	0.100
577.800	2.275	0.100
577.900	-4.068	0.100
578.000	-7.279	0.100
578.100	-2.697	0.100
578.200	-1.731	0.100
578.300	-7.736	0.100
578.400	-2.379	0.100
578.500	-7.072	0.100
578.600	-8.720	0.100
578.700	-11.682	0.100
578.800	-11.201	0.100
578.900	3.683	0.100
579.000	-3.680	0.100
579.100	-1.108	0.100
579.200	-5.664	0.100
579.300	-3.987	0.100
579.400	-11.519	0.100
579.500	-20.037	0.100
579.600	0.433	0.100
579.700	-12.470	0.100
579.800	-12.890	0.100
579.900	-9.387	0.100
580.000	4.979	0.100
580.100	-4.827	0.100
580.200	-4.111	0.100
580.300	-9.757	0.100
580.400	-8.408	0.100
580.500	-3.258	0.100
580.600	-7.288	0.100
580.700	-6.157	0.100
580.800	-4.736	0.100
580.900	-4.136	0.100
581.000	-14.800	0.100
581.100	-10.477	0.100
581.200	-16.655	0.100
581.300	2.604	0.100
581.400	2.250	0.100
581.500	-12.542	0.100
581.600	-8.986	0.100
581.700	-1.619	0.100
581.800	-3.613	0.100
581.900	0.310	0.100
582.000	-20.589	0.100
582.100	-12.716	0.100
582.200	3.987	0.100
582.300	-2.671	0.100
582.400	-3.721	0.100
582.500	-9.803	0.100
582.600	-0.227	0.100
582.700	-14.332	0.100
582.800	-2.492	0.100
582.900	-3.243	0.100
583.000	-5.340	0.100
583.100	-4.425	0.100
583.200	-9.235	0.100
583.300	0.810	0.100
583.400	-4.188	0.100
583.500	-1.718	0.100
583.600	-9.968	0.100
583.700	-12.493	0.100
583.800	-8.635	0.100
583.900	-2.095	0.100
584.000	-7.213	0.100
584.100	-6.083	0.100
584.200	-6.751	0.100
584.300	-1.514	0.100
584.400	-5.733	0.100
584.500	-0.075	0.100
584.600	-7.368	0.100
584.700	-9.505	0.100
584.800	-7.967	0.100
584.900	-5.790	0.100
585.000	0.960	0.100
585.100	-5.662	0.100
585.200	-3.114	0.100
585.300	-13.187	0.100
585.400	-3.333	0.100
585.500	-13.429	0.100
585.600	-6.204	0.100
585.700	-3.006	0.100
585.800	-1.955	0.100
585.900	-7.861	0.100
586.000	-2.880	0.100
586.100	-10.297	0.100
586.200	-12.646	0.100
586.300	-15.168	0.100
586.400	-6.955	0.100
586.500	-5.239	0.100
586.600	-8.684	0.100
586.700	-8.183	0.100
586.800	-5.080	0.100
586.900	-12.214	0.100
587.000	-1.385	0.100
587.100	-9.973	0.100
587.200	-8.598	0.100
587.300	1.638	0.100
587.400	-7.494	0.100
587.500	-17.763	0.100
587.600	-17.621	0.100
587.700	-8.122	0.100
587.800	1.929	0.100
587.900	-0.375	0.100
588.000	-10.183	0.100
588.100	-5.550	0.100
588.200	-14.069	0.100
588.300	-11.581	0.100
588.400	-5.371	0.100
588.500	-7.356	0.100
588.600	-3.301	0.100
588.700	3.223	0.100
588.800	-8.052	0.100
588.900	2.242	0.100
589.000	-9.088	0.100
589.100	-0.811	0.100
589.200	6.411	0.100
589.300	-3.966	0.100
589.400	-6.951	0.100
589.500	-22.968	0.100
589.600	-3.668	0.100
589.700	-1.281	0.100
589.800	-12.527	0.100
589.900	-2.668	0.100
590.000	-8.213	0.100
590.100	-11.402	0.100
590.200	-5.144	0.100
590.300	-0.649	0.100
590.400	-12.621	0.100
590.500	-15.037	0.100
590.600	-7.872	0.100
590.700	-4.403	0.100
590.800	2.419	0.100
590.900	-9.260	0.100
591.000	-13.040	0.100
591.100	-6.214	0.100
591.200	-5.004	0.100
591.300	-4.810	0.100
591.400	2.813	0.100
591.500	3.907	0.100
591.600	-4.437	0.100
591.700	-2.208	0.100
591.800	-14.006	0.100
591.900	-9.750	0.100
592.000	-9.000	0.100
592.100	1.736	0.100
592.200	-6.810	0.100
592.300	-6.013	0.100
592.400	-7.853	0.100
592.500	-17.782	0.100
592.600	-10.965	0.100
592.700	-15.561	0.100
592.800	-14.460	0.100
592.900	5.358	0.100
593.000	-15.690	0.100
593.100	-1.254	0.100
593.200	-9.890	0.100
593.300	-10.384	0.100
593.400	-5.368	0.100
593.500	-4.265	0.100
593.600	-5.771	0.100
593.700	-11.912	0.100
593.800	-4.007	0.100
593.900	-10.142	0.100
594.000	-15.321	0.100
594.100	-0.159	0.100
594.200	7.238	0.100
594.300	-9.407	0.100
594.400	-5.684	0.100
594.500	-7.778	0.100
594.600	-9.394	0.100
594.700	-15.066	0.100
594.800	-5.643	0.100
594.900	1.670	0.100
595.000	-3.102	0.100
595.100	-6.566	0.100
595.200	-0.182	0.100
595.300	-11.987	0.100
595.400	-6.730	0.100
595.500	-7.640	0.100
595.600	-3.504	0.100
595.700	-10.486	0.100
595.800	-7.563	0.100
595.900	-2.489	0.100
596.000	-0.903	0.100
596.100	-4.119	0.100
596.200	-17.076	0.100
596.300	-17.534	0.100
596.400	-15.214	0.100
596.500	-4.610	0.100
596.600	-8.975	0.100
596.700	-0.231	0.100
596.800	1.516	0.100
596.900	-21.946	0.100
597.000	2.815	0.100
597.100	-9.364	0.100
597.200	-2.810	0.100
597.300	-1.585	0.100
597.400	-0.059	0.100
597.500	-0.424	0.100
597.600	-14.669	0.100
597.700	-4.644	0.100
597.800	-1.872	0.100
597.900	-10.141	0.100
598.000	-14.481	0.100
598.100	-13.852	0.100
598.200	2.082	0.100
598.300	-1.122	0.100
598.400	-10.166	0.100
598.500	-8.172	0.100
598.600	-6.691	0.100
598.700	-11.732	0.100
598.800	-3.539	0.100
598.900	1.961	0.100
599.000	-20.790	0.100
599.100	-4.391	0.100
599.200	-11.878	0.100
599.300	-9.112	0.100
599.400	3.414	0.100
599.500	-5.966	0.100
599.600	-0.547	0.100
599.700	-11.891	0.100
599.800	-15.168	0.100
599.900	-4.038	0.100
600.000	-0.722	0.100
600.100	-12.624	0.100
600.200	-12.582	0.100
600.300	-1.646	0.100
600.400	-2.961	0.100
600.500	-11.244	0.100
600.600	-6.580	0.100
600.700	-13.730	0.100
600.800	3.804	0.100
600.900	-1.855	0.100
601.000	-10.404	0.100
601.100	-7.069	0.100
601.200	-1.797	0.100
601.300	-4.105	0.100
601.400	-3.372	0.100
601.500	-6.411	0.100
601.600	-16.085	0.100
601.700	-10.629	0.100
601.800	-6.171	0.100
601.900	-0.079	0.100
602.000	-17.196	0.100
602.100	-4.366	0.100
602.200	-4.897	0.100
602.300	-14.396	0.100
602.400	1.154	0.100
602.500	-13.609	0.100
602.600	-6.120	0.100
602.700	-7.893	0.100
602.800	-10.956	0.100
602.900	3.150	0.100
603.000	-11.604	0.100
603.100	-20.297	0.100
603.200	-4.946	0.100
603.300	-13.575	0.100
603.400	-2.537	0.100
603.500	-1.564	0.100
603.600	-11.168	0.100
603.700	-13.946	0.100
603.800	-2.457	0.100
603.900	-2.181	0.100
604.000	-5.551	0.100
604.100	-7.116	0.100
604.200	-9.318	0.100
604.300	2.949	0.100
604.400	-7.581	0.100
604.500	-7.999	0.100
604.600	-15.767	0.100
604.700	-5.237	0.100
604.800	-12.022	0.100
604.900	-0.864	0.100
605.000	-3.911	0.100
605.100	-9.677	0.100
605.200	-8.661	0.100
605.300	-9.822	0.100
605.400	1.724	0.100
605.500	-6.049	0.100
605.600	-10.094	0.100
605.700	-7.476	0.100
605.800	-8.231	0.100
605.900	-19.386	0.100
606.000	-4.011	0.100
606.100	4.125	0.100
606.200	-6.095	0.100
606.300	-10.156	0.100
606.400	-3.657	0.100
606.500	-7.033	0.100
606.600	-3.388	0.100
606.700	2.476	0.100
606.800	-3.669	0.100
606.900	-8.650	0.100
607.000	-0.621	0.100
607.100	-2.931	0.100
607.200	-16.080	0.100
607.300	-2.112	0.100
607.400	-10.213	0.100
607.500	6.402	0.100
607.600	2.834	0.100
607.700	-15.362	0.100
607.800	-8.742	0.100
607.900	-1.497	0.100
608.000	-2.240	0.100
608.100	-6.474	0.100
608.200	-8.776	0.100
608.300	-3.028	0.100
608.400	-5.034	0.100
608.500	-10.579	0.100
608.600	-16.074	0.100
608.700	-11.100	0.100
608.800	2.049	0.100
608.900	-7.101	0.100
609.000	7.594	0.100
609.100	-10.100	0.100
609.200	-3.052	0.100
609.300	-10.719	0.100
609.400	-8.973	0.100
609.500	-9.928	0.100
609.600	-1.639	0.100
609.700	-10.993	0.100
609.800	-14.342	0.100
609.900	-9.232	0.100
610.000	-1.047	0.100
610.100	5.412	0.100
610.200	-10.174	0.100
610.300	-5.335	0.100
610.400	-6.711	0.100
610.500	-14.964	0.100
610.600	-7.429	0.100
610.700	-2.463	0.100
610.800	-9.924	0.100
610.900	-3.000	0.100
611.000	-9.844	0.100
611.100	-5.796	0.100
611.200	-16.943	0.100
611.300	10.732	0.100
611.400	-3.646	0.100
611.500	-12.566	0.100
611.600	-5.338	0.100
611.700	-10.959	0.100
611.800	-15.137	0.100
611.900	-9.450	0.100
612.000	1.281	0.100
612.100	-11.659	0.100
612.200	-10.464	0.100
612.300	5.343	0.100
612.400	-6.188	0.100
612.500	-6.407	0.100
612.600	-11.174	0.100
612.700	-1.015	0.100
612.800	-0.918	0.100
612.900	-9.018	0.100
613.000	-11.988	0.100
613.100	-4.006	0.100
613.200	-9.587	0.100
613.300	-0.074	0.100
613.400	-10.987	0.100
613.500	-5.676	0.100
613.600	-5.495	0.100
613.700	-2.015	0.100
613.800	-5.678	0.100
613.900	-14.949	0.100
614.000	-7.992	0.100
614.100	-7.820	0.100
614.200	-10.225	0.100
614.300	-9.791	0.100
614.400	-5.891	0.100
614.500	-5.578	0.100
614.600	-10.484	0.100
614.700	-7.863	0.100
614.800	-15.589	0.100
614.900	-21.587	0.100
615.000	1.180	0.100
615.100	-6.816	0.100
615.200	-6.048	0.100
615.300	-6.557	0.100
615.400	-10.928	0.100
615.500	-14.086	0.100
615.600	-4.495	0.100
615.700	-7.795	0.100
615.800	-7.608	0.100
615.900	-0.218	0.100
616.000	-15.625	0.100
616.100	-4.828	0.100
616.200	-1.979	0.100
616.300	-8.025	0.100
616.400	-5.553	0.100
616.500	-6.541	0.100
616.600	-3.413	0.100
616.700	-4.578	0.100
616.800	-5.708	0.100
616.900	-5.386	0.100
617.000	-12.202	0.100
617.100	-8.491	0.100
617.200	-3.954	0.100
617.300	-3.456	0.100
617.400	-0.390	0.100
617.500	-7.955	0.100
617.600	-10.079	0.100
617.700	-5.778	0.100
617.800	-16.441	0.100
617.900	-4.707	0.100
618.000	-13.464	0.100
618.100	2.458	0.100
618.200	-3.190	0.100
618.300	-5.156	0.100
618.400	-8.616	0.100
618.500	-5.121	0.100
618.600	0.534	0.100
618.700	-4.413	0.100
618.800	-9.918	0.100
618.900	-12.523	0.100
619.000	0.329	0.100
619.100	-17.745	0.100
619.200	-8.800	0.100
619.300	-15.718	0.100
619.400	-8.939	0.100
619.500	-4.736	0.100
619.600	2.841	0.100
619.700	-9.734	0.100
619.800	-9.732	0.100
619.900	-10.870	0.100
620.000	-3.593	0.100
620.100	-15.393	0.100
620.200	-13.410	0.100
620.300	-6.057	0.100
620.400	-13.535	0.100
620.500	-3.409	0.100
620.600	-12.439	0.100
620.700	-8.113	0.100
620.800	-8.559	0.100
620.900	-8.070	0.100
621.000	-2.148	0.100
621.100	-15.298	0.100
621.200	-17.585	0.100
621.300	0.676	0.100
621.400	-1.587	0.100
621.500	-4.393	0.100
621.600	-6.900	0.100
621.700	-6.843	0.100
621.800	-2.283	0.100
621.900	-5.808	0.100
622.000	-6.486	0.100
622.100	-5.737	0.100
622.200	-3.355	0.100
622.300	-12.065	0.100
622.400	-10.807	0.100
622.500	-8.937	0.100
622.600	-3.136	0.100
622.700	-11.122	0.100
622.800	2.185	0.100
622.900	-7.237	0.100
623.000	-15.056	0.100
623.100	-3.498	0.100
623.200	0.281	0.100
623.300	-3.477	0.100
623.400	0.426	0.100
623.500	-9.809	0.100
623.600	-5.194	0.100
623.700	-6.456	0.100
623.800	-10.880	0.100
623.900	6.214	0.100
624.000	-5.398	0.100
624.100	-13.423	0.100
624.200	-11.519	0.100
624.300	-11.527	0.100
624.400	-9.165	0.100
624.500	-11.210	0.100
624.600	-2.625	0.100
624.700	-4.685	0.100
624.800	-10.357	0.100
624.900	-8.841	0.100
625.000	-5.982	0.100
625.100	-8.159	0.100
625.200	-19.290	0.100
625.300	-6.332	0.100
625.400	-2.724	0.100
625.500	-8.740	0.100
625.600	-9.250	0.100
625.700	2.013	0.100
625.800	-5.454	0.100
625.900	-10.706	0.100
626.000	-2.747	0.100
626.100	-10.762	0.100
626.200	-9.416	0.100
626.300	-11.355	0.100
626.400	-4.683	0.100
626.500	-9.714	0.100
626.600	-18.447	0.100
626.700	-6.200	0.100
626.800	-0.136	0.100
626.900	-8.476	0.100
627.000	-5.690	0.100
627.100	-6.159	0.100
627.200	-6.205	0.100
627.300	-6.211	0.100
627.400	-5.203	0.100
627.500	-7.070	0.100
627.600	-14.483	0.100
627.700	-6.893	0.100
627.800	-5.816	0.100
627.900	-10.603	0.100
628.000	-9.231	0.100
628.100	2.813	0.100
628.200	-9.525	0.100
628.300	-19.742	0.100
628.400	-10.529	0.100
628.500	-10.166	0.100
628.600	-4.872	0.100
628.700	-2.139	0.100
628.800	7.057	0.100
628.900	-5.883	0.100
629.000	-4.527	0.100
629.100	5.528	0.100
629.200	-16.050	0.100
629.300	-8.572	0.100
629.400	-9.577	0.100
629.500	-6.344	0.100
629.600	-11.712	0.100
629.700	-20.357	0.100
629.800	-7.612	0.100
629.900	-14.545	0.100
630.000	-5.107	0.100
630.100	-7.775	0.100
630.200	-13.475	0.100
630.300	-10.172	0.100
630.400	-0.714	0.100
630.500	-9.987	0.100
630.600	-4.589	0.100
630.700	-10.612	0.100
630.800	2.377	0.100
630.900	4.070	0.100
631.000	-11.903	0.100
631.100	-14.517	0.100
631.200	3.240	0.100
631.300	-13.518	0.100
631.400	-5.587	0.100
631.500	1.611	0.100
631.600	-12.132	0.100
631.700	-3.847	0.100
631.800	-5.616	0.100
631.900	-7.438	0.100
632.000	-7.693	0.100
632.100	-16.087	0.100
632.200	-3.408	0.100
632.300	-10.662	0.100
632.400	-10.385	0.100
632.500	-11.418	0.100
632.600	-8.301	0.100
632.700	4.518	0.100
632.800	-4.028	0.100
632.900	-4.301	0.100
633.000	-7.835	0.100
633.100	1.397	0.100
633.200	-9.900	0.100
633.300	4.983	0.100
633.400	-3.639	0.100
633.500	-13.734	0.100
633.600	-10.793	0.100
633.700	-7.686	0.100
633.800	-3.888	0.100
633.900	-9.250	0.100
634.000	-3.647	0.100
634.100	0.262	0.100
634.200	-1.146	0.100
634.300	-7.358	0.100
634.400	-5.737	0.100
634.500	2.216	0.100
634.600	-11.282	0.100
634.700	1.254	0.100
634.800	6.516	0.100
634.900	-10.966	0.100
635.000	-8.008	0.100
635.100	-17.311	0.100
635.200	4.257	0.100
635.300	0.563	0.100
635.400	-7.862	0.100
635.500	-7.372	0.100
635.600	2.853	0.100
635.700	-5.430	0.100
635.800	0.026	0.100
635.900	-6.009	0.100
636.000	-12.501	0.100
636.100	-4.716	0.100
636.200	-6.380	0.100
636.300	1.403	0.100
636.400	-4.000	0.100
636.500	1.734	0.100
636.600	-11.744	0.100
636.700	-2.420	0.100
636.800	-9.463	0.100
636.900	-1.339	0.100
637.000	-11.417	0.100
637.100	-12.255	0.100
637.200	-2.951	0.100
637.300	-6.091	0.100
637.400	-1.569	0.100
637.500	-6.698	0.100
637.600	-4.043	0.100
637.700	-4.988	0.100
637.800	-1.931	0.100
637.900	-12.143	0.100
638.000	-1.984	0.100
638.100	-3.067	0.100
638.200	-7.929	0.100
638.300	7.157	0.100
638.400	-3.173	0.100
638.500	-8.327	0.100
638.600	-10.204	0.100
638.700	-3.498	0.100
638.800	-7.523	0.100
638.900	-6.911	0.100
639.000	-3.828	0.100
639.100	-1.725	0.100
639.200	-3.976	0.100
639.300	-0.527	0.100
639.400	-7.146	0.100
639.500	-10.900	0.100
639.600	-2.016	0.100
639.700	-3.584	0.100
639.800	-2.477	0.100
639.900	-4.677	0.100
640.000	-1.935	0.100
640.100	-4.033	0.100
640.200	-6.890	0.100
640.300	-12.407	0.100
640.400	-2.036	0.100
640.500	6.694	0.100
640.600	-11.136	0.100
640.700	-7.544	0.100
640.800	-4.357	0.100
640.900	-8.855	0.100
641.000	-3.631	0.100
641.100	-4.201	0.100
641.200	1.460	0.100
641.300	-7.281	0.100
641.400	-7.800	0.100
641.500	-15.059	0.100
641.600	-6.535	0.100
641.700	9.431	0.100
641.800	-5.246	0.100
641.900	-2.487	0.100
642.000	-13.280	0.100
642.100	-3.551	0.100
642.200	-8.070	0.100
642.300	5.103	0.100
642.400	-6.335	0.100
642.500	-6.650	0.100
642.600	-4.407	0.100
642.700	-8.606	0.100
642.800	-3.097	0.100
642.900	-0.719	0.100
643.000	-10.135	0.100
643.100	-2.526	0.100
643.200	8.082	0.100
643.300	-3.544	0.100
643.400	-0.771	0.100
643.500	3.413	0.100
643.600	-11.414	0.100
643.700	-3.641	0.100
643.800	-8.332	0.100
643.900	-2.632	0.100
644.000	5.481	0.100
644.100	-8.849	0.100
644.200	-2.910	0.100
644.300	-4.189	0.100
644.400	-3.859	0.100
644.500	1.933	0.100
644.600	-11.057	0.100
644.700	2.528	0.100
644.800	2.909	0.100
644.900	-3.111	0.100
645.000	-4.686	0.100
645.100	-7.574	0.100
645.200	2.083	0.100
645.300	-7.397	0.100
645.400	-10.379	0.100
645.500	-8.550	0.100
645.600	2.867	0.100
645.700	-4.087	0.100
645.800	-22.052	0.100
645.900	2.079	0.100
646.000	-0.765	0.100
646.100	6.160	0.100
646.200	-7.974	0.100
646.300	-3.376	0.100
646.400	-4.347	0.100
646.500	5.782	0.100
646.600	0.895	0.100
646.700	-3.588	0.100
646.800	3.868	0.100
646.900	2.091	0.100
647.000	3.219	0.100
647.100	4.420	0.100
647.200	-12.808	0.100
647.300	4.298	0.100
647.400	-6.137	0.100
647.500	-6.154	0.100
647.600	0.844	0.100
647.700	-11.852	0.100
647.800	-12.463	0.100
647.900	-6.481	0.100
648.000	1.457	0.100
648.100	1.241	0.100
648.200	-20.194	0.100
648.300	0.595	0.100
648.400	-0.830	0.100
648.500	6.698	0.100
648.600	2.664	0.100
648.700	-7.259	0.100
648.800	-2.438	0.100
648.900	-1.466	0.100
649.000	1.775	0.100
649.100	2.346	0.100
649.200	-2.625	0.100
649.300	-5.866	0.100
649.400	1.631	0.100
649.500	0.857	0.100
649.600	-1.720	0.100
649.700	-6.871	0.100
649.800	-9.618	0.100
649.900	-0.967	0.100
650.000	-1.620	0.100
650.100	6.793	0.100
650.200	6.205	0.100
650.300	3.953	0.100
650.400	-9.480	0.100
650.500	3.580	0.100
650.600	-3.726	0.100
650.700	-10.040	0.100
650.800	-0.521	0.100
650.900	-11.179	0.100
651.000	-5.062	0.100
651.100	0.494	0.100
651.200	6.131	0.100
651.300	-2.787	0.100
651.400	-1.652	0.100
651.500	-4.574	0.100
651.600	0.978	0.100
651.700	-2.449	0.100
651.800	-2.393	0.100
651.900	-0.916	0.100
652.000	2.620	0.100
652.100	0.454	0.100
652.200	-5.193	0.100
652.300	7.363	0.100
652.400	-0.139	0.100
652.500	-3.773	0.100
652.600	-3.346	0.100
652.700	0.112	0.100
652.800	-7.943	0.100
652.900	-0.464	0.100
653.000	8.356	0.100
653.100	1.416	0.100
653.200	-3.177	0.100
653.300	-8.038	0.100
653.400	-8.185	0.100
653.500	-6.213	0.100
653.600	-7.036	0.100
653.700	-5.998	0.100
653.800	-3.185	0.100
653.900	3.351	0.100
654.000	-4.334	0.100
654.100	7.733	0.100
654.200	-4.799	0.100
654.300	-2.356	0.100
654.400	-14.837	0.100
654.500	-6.794	0.100
654.600	-0.767	0.100
654.700	-1.098	0.100
654.800	-0.389	0.100
654.900	-5.973	0.100
655.000	-9.666	0.100
655.100	4.499	0.100
655.200	6.602	0.100
655.300	-13.799	0.100
655.400	-9.626	0.100
655.500	-1.788	0.100
655.600	-6.307	0.100
655.700	1.184	0.100
655.800	3.502	0.100
655.900	-1.682	0.100
656.000	4.122	0.100
656.100	-3.570	0.100
656.200	-6.604	0.100
656.300	3.963	0.100
656.400	-8.310	0.100
656.500	-12.317	0.100
656.600	11.969	0.100
656.700	-2.695	0.100
656.800	2.312	0.100
656.900	-7.182	0.100
657.000	0.414	0.100
657.100	4.152	0.100
657.200	-11.674	0.100
657.300	4.004	0.100
657.400	-4.015	0.100
657.500	-4.737	0.100
657.600	-15.543	0.100
657.700	4.045	0.100
657.800	-3.700	0.100
657.900	-1.197	0.100
658.000	-8.579	0.100
658.100	5.360	0.100
658.200	-7.614	0.100
658.300	-2.066	0.100
658.400	1.541	0.100
658.500	-4.593	0.100
658.600	-0.910	0.100
658.700	-5.782	0.100
658.800	-14.531	0.100
658.900	-6.368	0.100
659.000	-0.741	0.100
659.100	-2.005	0.100
659.200	-2.706	0.100
659.300	-2.615	0.100
659.400	-1.751	0.100
659.500	-6.863	0.100
659.600	-11.052	0.100
659.700	4.999	0.100
659.800	1.482	0.100
659.900	3.618	0.100
660.000	0.781	0.100
660.100	-2.362	0.100
660.200	-8.109	0.100
660.300	-5.675	0.100
660.400	-11.223	0.100
660.500	-5.722	0.100
660.600	-2.215	0.100
660.700	5.719	0.100
660.800	-6.318	0.100
660.900	-1.208	0.100
661.000	-8.381	0.100
661.100	-6.905	0.100
661.200	-2.506	0.100
661.300	-5.746	0.100
661.400	-3.920	0.100
661.500	-6.531	0.100
661.600	1.279	0.100
661.700	-5.776	0.100
661.800	6.758	0.100
661.900	-4.910	0.100
662.000	8.971	0.100
662.100	-3.147	0.100
662.200	-10.191	0.100
662.300	4.918	0.100
662.400	-8.571	0.100
662.500	-7.854	0.100
662.600	0.945	0.100
662.700	2.320	0.100
662.800	-1.628	0.100
662.900	-6.824	0.100
663.000	-7.383	0.100
663.100	6.050	0.100
663.200	-0.178	0.100
663.300	-4.468	0.100
663.400	-6.983	0.100
663.500	-2.698	0.100
663.600	-1.866	0.100
663.700	-2.979	0.100
663.800	-3.601	0.100
663.900	7.665	0.100
664.000	-2.488	0.100
664.100	-5.016	0.100
664.200	-13.687	0.100
664.300	-8.560	0.100
664.400	4.237	0.100
664.500	-3.366	0.100
664.600	-3.861	0.100
664.700	1.326	0.100
664.800	0.403	0.100
664.900	-1.237	0.100
665.000	-1.164	0.100
665.100	0.491	0.100
665.200	-3.149	0.100
665.300	-3.436	0.100
665.400	-2.717	0.100
665.500	-4.610	0.100
665.600	8.497	0.100
665.700	8.951	0.100
665.800	2.354	0.100
665.900	-8.090	0.100
666.000	3.168	0.100
666.100	-6.666	0.100
666.200	-11.402	0.100
666.300	7.589	0.100
666.400	-8.032	0.100
666.500	-2.184	0.100
666.600	3.913	0.100
666.700	-3.292	0.100
666.800	-2.953	0.100
666.900	-1.458	0.100
667.000	-2.847	0.100
667.100	-5.246	0.100
667.200	11.738	0.100
667.300	1.616	0.100
667.400	0.708	0.100
667.500	-3.781	0.100
667.600	-8.019	0.100
667.700	-5.855	0.100
667.800	-1.342	0.100
667.900	5.229	0.100
668.000	-1.759	0.100
668.100	0.862	0.100
668.200	-9.599	0.100
668.300	-1.268	0.100
668.400	4.327	0.100
668.500	-10.834	0.100
668.600	-5.839	0.100
668.700	-5.788	0.100
668.800	0.050	0.100
668.900	-5.357	0.100
669.000	-6.012	0.100
669.100	0.282	0.100
669.200	8.796	0.100
669.300	-5.026	0.100
669.400	-10.205	0.100
669.500	4.298	0.100
669.600	4.570	0.100
669.700	2.926	0.100
669.800	-15.335	0.100
669.900	3.208	0.100
670.000	-2.646	0.100
670.100	6.328	0.100
670.200	-2.866	0.100
670.300	-2.016	0.100
670.400	-2.207	0.100
670.500	4.390	0.100
670.600	5.582	0.100
670.700	-1.115	0.100
670.800	-4.791	0.100
670.900	-1.511	0.100
671.000	-1.714	0.100
671.100	2.589	0.100
671.200	-1.471	0.100
671.300	1.815	0.100
671.400	-1.876	0.100
671.500	5.822	0.100
671.600	-2.244	0.100
671.700	-4.105	0.100
671.800	3.423	0.100
671.900	-2.293	0.100
672.000	-0.255	0.100
672.100	8.073	0.100
672.200	-10.035	0.100
672.300	-8.952	0.100
672.400	-2.766	0.100
672.500	4.440	0.100
672.600	-3.051	0.100
672.700	6.185	0.100
672.800	1.695	0.100
672.900	-5.553	0.100
673.000	0.722	0.100
673.100	-0.805	0.100
673.200	-6.038	0.100
673.300	4.695	0.100
673.400	-5.539	0.100
673.500	-2.491	0.100
673.600	2.363	0.100
673.700	-6.400	0.100
673.800	0.519	0.100
673.900	-3.657	0.100
674.000	-12.182	0.100
674.100	2.687	0.100
674.200	-3.228	0.100
674.300	5.071	0.100
674.400	4.268	0.100
674.500	5.309	0.100
674.600	3.440	0.100
674.700	-5.882	0.100
674.800	6.467	0.100
674.900	-3.644	0.100
675.000	-9.590	0.100
675.100	6.513	0.100
675.200	6.317	0.100
675.300	-4.872	0.100
675.400	-4.724	0.100
675.500	4.630	0.100
675.600	-7.964	0.100
675.700	-6.973	0.100
675.800	5.125	0.100
675.900	11.485	0.100
676.000	-0.936	0.100
676.100	-2.818	0.100
676.200	2.219	0.100
676.300	-2.003	0.100
676.400	-1.197	0.100
676.500	4.782	0.100
676.600	1.881	0.100
676.700	-0.521	0.100
676.800	-14.517	0.100
676.900	2.201	0.100
677.000	-8.466	0.100
677.100	2.774	0.100
677.200	4.441	0.100
677.300	-2.022	0.100
677.400	7.037	0.100
677.500	-11.707	0.100
677.600	0.495	0.100
677.700	-7.392	0.100
677.800	-3.455	0.100
677.900	12.425	0.100
678.000	-3.395	0.100
678.100	0.048	0.100
678.200	8.127	0.100
678.300	-5.191	0.100
678.400	-2.489	0.100
678.500	3.969	0.100
678.600	-3.638	0.100
678.700	6.702	0.100
678.800	-10.698	0.100
678.900	-5.899	0.100
679.000	9.112	0.100
679.100	4.006	0.100
679.200	-4.825	0.100
679.300	-2.684	0.100
679.400	-5.468	0.100
679.500	5.009	0.100
679.600	-4.694	0.100
679.700	-0.794	0.100
679.800	-1.053	0.100
679.900	-7.191	0.100
680.000	-3.123	0.100
680.100	-3.456	0.100
680.200	2.816	0.100
680.300	-0.176	0.100
680.400	-8.182	0.100
680.500	11.841	0.100
680.600	-5.127	0.100
680.700	-1.446	0.100
680.800	0.068	0.100
680.900	1.319	0.100
681.000	2.296	0.100
681.100	-5.148	0.100
681.200	2.089	0.100
681.300	6.438	0.100
681.400	4.222	0.100
681.500	-4.310	0.100
681.600	-1.722	0.100
681.700	0.161	0.100
681.800	-6.236	0.100
681.900	-4.955	0.100
682.000	-5.904	0.100
682.100	0.180	0.100
682.200	3.632	0.100
682.300	1.307	0.100
682.400	-1.949	0.100
682.500	0.141	0.100
682.600	0.700	0.100
682.700	-6.542	0.100
682.800	-13.513	0.100
682.900	5.327	0.100
683.000	-11.112	0.100
683.100	0.891	0.100
683.200	7.273	0.100
683.300	-2.855	0.100
683.400	-4.193	0.100
683.500	-5.714	0.100
683.600	-8.629	0.100
683.700	6.634	0.100
683.800	5.077	0.100
683.900	-3.459	0.100
684.000	5.764	0.100
684.100	-8.346	0.100
684.200	-3.664	0.100
684.300	-2.056	0.100
684.400	-4.665	0.100
684.500	1.309	0.100
684.600	3.813	0.100
684.700	0.278	0.100
684.800	-2.598	0.100
684.900	6.254	0.100
685.000	-1.366	0.100
685.100	-5.081	0.100
685.200	-0.556	0.100
685.300	9.762	0.100
685.400	-2.494	0.100
685.500	-13.892	0.100
685.600	-6.889	0.100
685.700	5.821	0.100
685.800	3.451	0.100
685.900	-3.943	0.100
686.000	1.004	0.100
686.100	7.330	0.100
686.200	0.562	0.100
686.300	0.704	0.100
686.400	2.459	0.100
686.500	-9.863	0.100
686.600	-1.641	0.100
686.700	1.570	0.100
686.800	5.441	0.100
686.900	-3.236	0.100
687.000	-8.881	0.100
687.100	-5.809	0.100
687.200	-5.385	0.100
687.300	-8.839	0.100
687.400	-2.868	0.100
687.500	10.215	0.100
687.600	1.719	0.100
687.700	-6.156	0.100
687.800	2.495	0.100
687.900	3.331	0.100
688.000	1.247	0.100
688.100	8.766	0.100
688.200	-9.835	0.100
688.300	-2.057	0.100
688.400	-1.358	0.100
688.500	-4.762	0.100
688.600	-4.950	0.100
688.700	-2.888	0.100
688.800	6.267	0.100
688.900	-0.228	0.100
689.000	2.592	0.100
689.100	10.115	0.100
689.200	-0.286	0.100
689.300	-6.335	0.100
689.400	3.787	0.100
689.500	-0.655	0.100
689.600	-7.323	0.100
689.700	3.483	0.100
689.800	-3.750	0.100
689.900	-6.996	0.100
690.000	-5.940	0.100
690.100	10.692	0.100
690.200	-3.232	0.100
690.300	7.979	0.100
690.400	-1.798	0.100
690.500	-2.154	0.100
690.600	-1.886	0.100
690.700	0.444	0.100
690.800	-15.310	0.100
690.900	-9.685	0.100
691.000	0.273	0.100
691.100	5.158	0.100
691.200	13.721	0.100
691.300	6.483	0.100
691.400	-1.889	0.100
691.500	-7.300	0.100
691.600	7.161	0.100
691.700	2.202	0.100
691.800	-1.774	0.100
691.900	6.398	0.100
692.000	-7.086	0.100
692.100	4.948	0.100
692.200	-0.350	0.100
692.300	-1.802	0.100
692.400	3.678	0.100
692.500	-2.933	0.100
692.600	-14.350	0.100
692.700	9.662	0.100
692.800	0.365	0.100
692.900	0.905	0.100
693.000	-4.996	0.100
693.100	-0.369	0.100
693.200	-12.652	0.100
693.300	-2.110	0.100
693.400	-0.100	0.100
693.500	-1.868	0.100
693.600	2.486	0.100
693.700	1.357	0.100
693.800	-12.702	0.100
693.900	1.934	0.100
694.000	0.333	0.100
694.100	3.845	0.100
694.200	-1.533	0.100
694.300	7.835	0.100
694.400	4.582	0.100
694.500	-2.054	0.100
694.600	-4.926	0.100
694.700	-7.345	0.100
694.800	-3.576	0.100
694.900	8.103	0.100
695.000	-5.420	0.100
695.100	-8.241	0.100
695.200	0.385	0.100
695.300	-1.770	0.100
695.400	-0.754	0.100
695.500	-1.356	0.100
695.600	-3.678	0.100
695.700	4.002	0.100
695.800	-4.186	0.100
695.900	-3.114	0.100
696.000	-0.886	0.100
696.100	-6.148	0.100
696.200	-9.999	0.100
696.300	4.069	0.100
696.400	-1.946	0.100
696.500	10.779	0.100
696.600	-1.585	0.100
696.700	-4.937	0.100
696.800	-8.307	0.100
696.900	-8.405	0.100
697.000	2.015	0.100
697.100	-0.988	0.100
697.200	5.810	0.100
697.300	1.221	0.100
697.400	-0.864	0.100
697.500	-4.639	0.100
697.600	4.577	0.100
697.700	4.404	0.100
697.800	-4.785	0.100
697.900	-5.365	0.100
698.000	-5.755	0.100
698.100	-16.104	0.100
698.200	0.465	0.100
698.300	11.989	0.100
698.400	-11.132	0.100
698.500	5.675	0.100
698.600	0.291	0.100
698.700	-2.158	0.100
698.800	-5.716	0.100
698.900	6.252	0.100
699.000	-2.539	0.100
699.100	-5.608	0.100
699.200	-7.898	0.100
699.300	1.942	0.100
699.400	-3.522	0.100
699.500	1.283	0.100
699.600	-1.143	0.100
699.700	0.376	0.100
699.800	-6.716	0.100
699.900	-4.811	0.100
700.000	-3.757	0.100
700.100	-6.714	0.100
700.200	-0.704	0.100
700.300	-1.120	0.100
700.400	1.729	0.100
700.500	3.699	0.100
700.600	-1.971	0.100
700.700	-0.179	0.100
700.800	2.521	0.100
700.900	4.976	0.100
701.000	-8.470	0.100
701.100	-7.954	0.100
701.200	-1.066	0.100
701.300	4.983	0.100
701.400	-4.884	0.100
701.500	-4.994	0.100
701.600	-5.227	0.100
701.700	-10.658	0.100
701.800	-1.032	0.100
701.900	12.476	0.100
702.000	-0.291	0.100
702.100	-10.004	0.100
702.200	0.691	0.100
702.300	-0.627	0.100
702.400	-8.052	0.100
702.500	3.675	0.100
702.600	-2.688	0.100
702.700	-5.551	0.100
702.800	1.299	0.100
702.900	-2.446	0.100
703.000	-9.026	0.100
703.100	-2.164	0.100
703.200	2.443	0.100
703.300	-1.264	0.100
703.400	3.637	0.100
703.500	1.990	0.100
703.600	-12.283	0.100
703.700	2.305	0.100
703.800	4.401	0.100
703.900	-3.122	0.100
704.000	-0.802	0.100
704.100	2.702	0.100
704.200	-12.362	0.100
704.300	-1.334	0.100
704.400	-5.721	0.100
704.500	-2.517	0.100
704.600	-11.682	0.100
704.700	-0.175	0.100
704.800	5.387	0.100
704.900	-0.503	0.100
705.000	1.507	0.100
705.100	-1.709	0.100
705.200	-8.163	0.100
705.300	-4.047	0.100
705.400	-10.397	0.100
705.500	-4.714	0.100
705.600	-9.731	0.100
705.700	3.915	0.100
705.800	-1.521	0.100
705.900	-1.778	0.100
706.000	-4.072	0.100
706.100	-5.790	0.100
706.200	-5.253	0.100
706.300	-2.738	0.100
706.400	5.942	0.100
706.500	-0.890	0.100
706.600	-7.904	0.100
706.700	-2.074	0.100
706.800	-7.037	0.100
706.900	-7.708	0.100
707.000	1.298	0.100
707.100	2.966	0.100
707.200	-1.197	0.100
707.300	-1.866	0.100
707.400	-4.303	0.100
707.500	-9.816	0.100
707.600	-0.996	0.100
707.700	5.719	0.100
707.800	11.688	0.100
707.900	1.349	0.100
708.000	-5.810	0.100
708.100	-9.040	0.100
708.200	-5.837	0.100
708.300	-3.048	0.100
708.400	-1.670	0.100
708.500	-7.301	0.100
708.600	-2.746	0.100
708.700	-4.395	0.100
708.800	-0.897	0.100
708.900	-10.493	0.100
709.000	-3.470	0.100
709.100	1.256	0.100
709.200	-11.506	0.100
709.300	-12.908	0.100
709.400	-10.512	0.100
709.500	-5.794	0.100
709.600	-1.309	0.100
709.700	-0.060	0.100
709.800	-0.294	0.100
709.900	-7.754	0.100
710.000	-2.518	0.100
710.100	-3.202	0.100
710.200	-7.228	0.100
710.300	0.412	0.100
710.400	6.235	0.100
710.500	-5.756	0.100
710.600	-10.891	0.100
710.700	-2.903	0.100
710.800	-5.469	0.100
710.900	0.884	0.100
711.000	-0.418	0.100
711.100	-8.648	0.100
711.200	-4.354	0.100
711.300	-7.104	0.100
711.400	-4.158	0.100
711.500	4.203	0.100
711.600	-5.974	0.100
711.700	-2.393	0.100
711.800	-2.473	0.100
711.900	-6.194	0.100
712.000	-9.522	0.100
712.100	-15.439	0.100
712.200	2.748	0.100
712.300	5.418	0.100
712.400	-15.816	0.100
712.500	-1.736	0.100
712.600	-6.998	0.100
712.700	-16.595	0.100
712.800	-10.138	0.100
712.900	-0.550	0.100
713.000	0.010	0.100
713.100	-7.359	0.100
713.200	3.800	0.100
713.300	-2.623	0.100
713.400	-7.327	0.100
713.500	-7.420	0.100
713.600	-0.051	0.100
713.700	-6.236	0.100
713.800	0.326	0.100
713.900	-1.962	0.100
714.000	-7.367	0.100
714.100	2.489	0.100
714.200	-2.492	0.100
714.300	-15.202	0.100
714.400	-9.339	0.100
714.500	0.544	0.100
714.600	-1.033	0.100
714.700	-11.360	0.100
714.800	-10.210	0.100
714.900	-3.478	0.100
715.000	-9.988	0.100
715.100	1.307	0.100
715.200	-9.543	0.100
715.300	5.353	0.100
715.400	-3.523	0.100
715.500	-3.701	0.100
715.600	-18.174	0.100
715.700	-5.511	0.100
715.800	1.240	0.100
715.900	2.200	0.100
716.000	-6.540	0.100
716.100	-2.520	0.100
716.200	-2.451	0.100
716.300	-7.784	0.100
716.400	-0.901	0.100
716.500	-4.046	0.100
716.600	-3.145	0.100
716.700	-5.712	0.100
716.800	-7.426	0.100
716.900	-7.719	0.100
717.000	8.597	0.100
717.100	-7.843	0.100
717.200	-6.502	0.100
717.300	1.512	0.100
717.400	-3.746	0.100
717.500	-10.206	0.100
717.600	-8.646	0.100
717.700	-11.852	0.100
717.800	6.027	0.100
717.900	-9.141	0.100
718.000	-12.584	0.100
718.100	-12.525	0.100
718.200	-5.978	0.100
718.300	-10.174	0.100
718.400	-2.396	0.100
718.500	-8.087	0.100
718.600	-3.819	0.100
718.700	-4.141	0.100
718.800	-14.917	0.100
718.900	-6.635	0.100
719.000	4.111	0.100
719.100	-12.211	0.100
719.200	-7.145	0.100
719.300	-7.479	0.100
719.400	3.472	0.100
719.500	-3.070	0.100
719.600	4.306	0.100
719.700	-8.474	0.100
719.800	-11.041	0.100
719.900	3.260	0.100
720.000	-10.234	0.100
720.100	-1.930	0.100
720.200	-5.756	0.100
720.300	-6.239	0.100
720.400	-4.541	0.100
720.500	0.621	0.100
720.600	-0.725	0.100
720.700	-1.945	0.100
720.800	-2.140	0.100
720.900	-8.246	0.100
721.000	-3.024	0.100
721.100	2.952	0.100
721.200	-4.962	0.100
721.300	-17.295	0.100
721.400	-10.564	0.100
721.500	-9.575	0.100
721.600	-13.560	0.100
721.700	7.306	0.100
721.800	-6.365	0.100
721.900	2.472	0.100
722.000	-2.587	0.100
722.100	-11.366	0.100
722.200	-1.116	0.100
722.300	-14.244	0.100
722.400	-8.891	0.100
722.500	-9.679	0.100
722.600	-5.998	0.100
722.700	-0.583	0.100
722.800	-0.206	0.100
722.900	-7.553	0.100
723.000	-11.535	0.100
723.100	-10.535	0.100
723.200	-11.902	0.100
723.300	-5.721	0.100
723.400	-7.382	0.100
723.500	-2.060	0.100
723.600	-4.128	0.100
723.700	-7.716	0.100
723.800	-4.154	0.100
723.900	-5.780	0.100
724.000	-3.750	0.100
724.100	-9.142	0.100
724.200	4.251	0.100
724.300	-12.034	0.100
724.400	-2.019	0.100
724.500	-11.200	0.100
724.600	-2.302	0.100
724.700	-13.236	0.100
724.800	-6.485	0.100
724.900	-1.929	0.100
725.000	-6.437	0.100
725.100	-2.152	0.100
725.200	4.497	0.100
725.300	-6.486	0.100
725.400	-2.659	0.100
725.500	-2.693	0.100
725.600	2.055	0.100
725.700	-7.282	0.100
725.800	-0.716	0.100
725.900	-5.724	0.100
726.000	-4.693	0.100
726.100	-9.394	0.100
726.200	-4.941	0.100
726.300	-8.334	0.100
726.400	-3.634	0.100
726.500	-0.777	0.100
726.600	-11.504	0.100
726.700	1.604	0.100
726.800	-17.909	0.100
726.900	-7.773	0.100
727.000	-11.478	0.100
727.100	9.387	0.100
727.200	-12.514	0.100
727.300	-4.020	0.100
727.400	-1.706	0.100
727.500	-2.542	0.100
727.600	-9.811	0.100
727.700	-0.726	0.100
727.800	-9.429	0.100
727.900	-11.972	0.100
728.000	-4.234	0.100
728.100	-7.204	0.100
728.200	-4.349	0.100
728.300	-7.991	0.100
728.400	3.620	0.100
728.500	-1.208	0.100
728.600	-8.673	0.100
728.700	-9.667	0.100
728.800	-4.468	0.100
728.900	-6.592	0.100
729.000	-9.261	0.100
729.100	-12.680	0.100
729.200	-3.616	0.100
729.300	-6.809	0.100
729.400	-1.630	0.100
729.500	-5.171	0.100
729.600	-6.580	0.100
729.700	9.943	0.100
729.800	-0.252	0.100
729.900	-17.134	0.100
730.000	-6.678	0.100
730.100	-0.030	0.100
730.200	-8.940	0.100
730.300	-8.651	0.100
730.400	-6.750	0.100
730.500	-3.897	0.100
730.600	-12.769	0.100
730.700	-14.257	0.100
730.800	2.218	0.100
730.900	-4.268	0.100
731.000	-11.071	0.100
731.100	-14.194	0.100
731.200	2.777	0.100
731.300	-5.147	0.100
731.400	2.767	0.100
731.500	-5.699	0.100
731.600	-9.722	0.100
731.700	-2.902	0.100
731.800	-6.069	0.100
731.900	-7.143	0.100
732.000	-9.787	0.100
732.100	-14.626	0.100
732.200	-6.384	0.100
732.300	2.957	0.100
732.400	2.321	0.100
732.500	-9.174	0.100
732.600	-3.772	0.100
732.700	5.353	0.100
732.800	-8.592	0.100
732.900	-3.840	0.100
733.000	-3.237	0.100
733.100	-17.120	0.100
733.200	-9.129	0.100
733.300	-11.273	0.100
733.400	-12.991	0.100
733.500	-8.753	0.100
733.600	-5.435	0.100
733.700	-2.148	0.100
733.800	-2.430	0.100
733.900	1.446	0.100
734.000	0.435	0.100
734.100	-9.343	0.100
734.200	0.578	0.100
734.300	-8.211	0.100
734.400	-5.918	0.100
734.500	-3.924	0.100
734.600	-9.668	0.100
734.700	-9.242	0.100
734.800	-17.900	0.100
734.900	-8.711	0.100
735.000	7.698	0.100
735.100	-0.650	0.100
735.200	-11.386	0.100
735.300	-5.228	0.100
735.400	-0.506	0.100
735.500	-3.551	0.100
735.600	-1.168	0.100
735.700	-4.450	0.100
735.800	-9.546	0.100
735.900	-3.493	0.100
736.000	-4.520	0.100
736.100	-4.655	0.100
736.200	-12.876	0.100
736.300	-11.046	0.100
736.400	-13.035	0.100
736.500	-4.100	0.100
736.600	-1.889	0.100
736.700	-3.293	0.100
736.800	-3.406	0.100
736.900	-0.910	0.100
737.000	-8.198	0.100
737.100	0.237	0.100
737.200	-10.010	0.100
737.300	-7.133	0.100
737.400	-8.583	0.100
737.500	-5.698	0.100
737.600	-12.313	0.100
737.700	-5.446	0.100
737.800	-5.448	0.100
737.900	-8.258	0.100
738.000	-5.600	0.100
738.100	-12.955	0.100
738.200	-10.325	0.100
738.300	-3.859	0.100
738.400	-0.762	0.100
738.500	-6.007	0.100
738.600	-7.476	0.100
738.700	-7.300	0.100
738.800	-5.979	0.100
738.900	2.490	0.100
739.000	-11.176	0.100
739.100	-15.319	0.100
739.200	-8.184	0.100
739.300	-5.497	0.100
739.400	-5.644	0.100
739.500	-2.658	0.100
739.600	4.147	0.100
739.700	-5.723	0.100
739.800	-12.470	0.100
739.900	-8.705	0.100
740.000	-4.743	0.100
740.100	1.300	0.100
740.200	-5.168	0.100
740.300	-7.685	0.100
740.400	-5.069	0.100
740.500	-2.467	0.100
740.600	-9.958	0.100
740.700	-9.096	0.100
740.800	-8.439	0.100
740.900	-14.880	0.100
741.000	-7.439	0.100
741.100	5.775	0.100
741.200	-4.129	0.100
741.300	-17.761	0.100
741.400	0.616	0.100
741.500	-0.064	0.100
741.600	-12.119	0.100
741.700	-18.011	0.100
741.800	-3.799	0.100
741.900	-7.560	0.100
742.000	3.620	0.100
742.100	-8.170	0.100
742.200	-0.200	0.100
742.300	-11.346	0.100
742.400	-3.420	0.100
742.500	-6.423	0.100
742.600	-4.708	0.100
742.700	-13.060	0.100
742.800	-0.480	0.100
742.900	-6.759	0.100
743.000	-7.733	0.100
743.100	-7.369	0.100
743.200	-14.403	0.100
743.300	-10.545	0.100
743.400	0.316	0.100
743.500	-1.999	0.100
743.600	-1.263	0.100
743.700	2.189	0.100
743.800	-14.817	0.100
743.900	-8.875	0.100
744.000	-0.839	0.100
744.100	-9.933	0.100
744.200	0.042	0.100
744.300	-6.559	0.100
744.400	-8.436	0.100
744.500	3.336	0.100
744.600	-12.950	0.100
744.700	-4.955	0.100
744.800	-1.887	0.100
744.900	-20.710	0.100
745.000	-6.762	0.100
745.100	-4.015	0.100
745.200	-5.433	0.100
745.300	-7.932	0.100
745.400	-6.767	0.100
745.500	-7.037	0.100
745.600	-15.396	0.100
745.700	1.363	0.100
745.800	-0.078	0.100
745.900	-18.883	0.100
746.000	-9.339	0.100
746.100	-6.912	0.100
746.200	-3.075	0.100
746.300	-2.319	0.100
746.400	-5.931	0.100
746.500	5.642	0.100
746.600	-4.522	0.100
746.700	-17.806	0.100
746.800	2.648	0.100
746.900	-3.068	0.100
747.000	-10.624	0.100
747.100	-18.380	0.100
747.200	-12.212	0.100
747.300	0.468	0.100
747.400	-6.873	0.100
747.500	0.383	0.100
747.600	-11.016	0.100
747.700	-4.992	0.100
747.800	-5.402	0.100
747.900	-7.172	0.100
748.000	-5.160	0.100
748.100	-12.875	0.100
748.200	-2.204	0.100
748.300	-2.934	0.100
748.400	0.340	0.100
748.500	-10.969	0.100
748.600	-9.901	0.100
748.700	-12.399	0.100
748.800	-4.669	0.100
748.900	-4.556	0.100
749.000	-2.001	0.100
749.100	-7.021	0.100
749.200	-14.180	0.100
749.300	0.908	0.100
749.400	-2.698	0.100
749.500	-7.453	0.100
749.600	-9.942	0.100
749.700	-4.461	0.100
749.800	-10.675	0.100
749.900	-5.662	0.100
750.000	-10.622	0.100
750.100	-11.299	0.100
750.200	-11.606	0.100
750.300	-6.381	0.100
750.400	-3.264	0.100
750.500	0.666	0.100
750.600	-6.583	0.100
750.700	-8.176	0.100
750.800	1.762	0.100
750.900	-8.326	0.100
751.000	-1.994	0.100
751.100	-11.240	0.100
751.200	-19.035	0.100
751.300	-3.508	0.100
751.400	-2.016	0.100
751.500	-10.613	0.100
751.600	-5.706	0.100
751.700	-5.774	0.100
751.800	-8.160	0.100
751.900	-2.083	0.100
752.000	-13.102	0.100
752.100	-18.290	0.100
752.200	-2.409	0.100
752.300	-10.975	0.100
752.400	-6.269	0.100
752.500	-4.406	0.100
752.600	-8.845	0.100
752.700	-12.373	0.100
752.800	-6.179	0.100
752.900	-13.912	0.100
753.000	-8.440	0.100
753.100	-0.581	0.100
753.200	-12.099	0.100
753.300	-5.376	0.100
753.400	-2.345	0.100
753.500	-12.246	0.100
753.600	-0.261	0.100
753.700	-9.249	0.100
753.800	-6.016	0.100
753.900	-7.355	0.100
754.000	-6.420	0.100
754.100	1.091	0.100
754.200	-3.850	0.100
754.300	-5.912	0.100
754.400	-9.800	0.100
754.500	-13.706	0.100
754.600	-2.814	0.100
754.700	2.950	0.100
754.800	-15.816	0.100
754.900	1.615	0.100
755.000	-2.167	0.100
755.100	-2.166	0.100
755.200	-1.320	0.100
755.300	-1.646	0.100
755.400	-9.024	0.100
755.500	-5.986	0.100
755.600	-7.643	0.100
755.700	-8.223	0.100
755.800	-7.545	0.100
755.900	1.087	0.100
756.000	-17.904	0.100
756.100	-8.511	0.100
756.200	-5.467	0.100
756.300	-10.244	0.100
756.400	-13.559	0.100
756.500	-2.752	0.100
756.600	-4.762	0.100
756.700	-9.851	0.100
756.800	-7.026	0.100
756.900	-6.855	0.100
757.000	-7.445	0.100
757.100	-14.127	0.100
757.200	-3.997	0.100
757.300	-2.708	0.100
757.400	-0.236	0.100
757.500	-11.365	0.100
757.600	-6.792	0.100
757.700	3.101	0.100
757.800	-12.723	0.100
757.900	-6.535	0.100
758.000	-7.618	0.100
758.100	-13.991	0.100
758.200	-8.257	0.100
758.300	-15.111	0.100
758.400	-19.020	0.100
758.500	-0.398	0.100
758.600	-3.123	0.100
758.700	2.767	0.100
758.800	-1.869	0.100
758.900	-7.820	0.100
759.000	-5.288	0.100
759.100	-5.212	0.100
759.200	-8.099	0.100
759.300	-7.382	0.100
759.400	-5.338	0.100
759.500	-4.159	0.100
759.600	-9.057	0.100
759.700	-8.355	0.100
759.800	-3.432	0.100
759.900	-7.662	0.100
760.000	-0.162	0.100
760.100	4.927	0.100
760.200	-21.592	0.100
760.300	-12.473	0.100
760.400	-8.713	0.100
760.500	-9.561	0.100
760.600	-1.733	0.100
760.700	-13.185	0.100
760.800	-8.289	0.100
760.900	-8.237	0.100
761.000	-11.530	0.100
761.100	-12.682	0.100
761.200	-7.042	0.100
761.300	-4.147	0.100
761.400	0.162	0.100
761.500	-10.027	0.100
761.600	-9.037	0.100
761.700	-7.699	0.100
761.800	1.025	0.100
761.900	-8.784	0.100
762.000	-4.469	0.100
762.100	-4.265	0.100
762.200	-5.131	0.100
762.300	-0.455	0.100
762.400	-10.821	0.100
762.500	-9.809	0.100
762.600	-9.139	0.100
762.700	-12.594	0.100
762.800	-16.652	0.100
762.900	1.641	0.100
763.000	-13.960	0.100
763.100	2.007	0.100
763.200	-3.014	0.100
763.300	-11.425	0.100
763.400	-9.655	0.100
763.500	-3.501	0.100
763.600	-7.859	0.100
763.700	-12.473	0.100
763.800	-9.009	0.100
763.900	-4.965	0.100
764.000	-8.772	0.100
764.100	1.363	0.100
764.200	-0.178	0.100
764.300	-15.851	0.100
764.400	-3.359	0.100
764.500	-13.482	0.100
764.600	-4.981	0.100
764.700	-7.361	0.100
764.800	1.909	0.100
764.900	-2.439	0.100
765.000	2.805	0.100
765.100	-7.998	0.100
765.200	-4.725	0.100
765.300	-8.992	0.100
765.400	-3.788	0.100
765.500	-11.594	0.100
765.600	-14.303	0.100
765.700	-8.936	0.100
765.800	-1.412	0.100
765.900	-2.816	0.100
766.000	-19.324	0.100
766.100	-3.107	0.100
766.200	-14.580	0.100
766.300	-7.104	0.100
766.400	-15.175	0.100
766.500	-6.089	0.100
766.600	-0.754	0.100
766.700	-6.741	0.100
766.800	-9.676	0.100
766.900	-13.946	0.100
767.000	-10.198	0.100
767.100	-2.719	0.100
767.200	-9.896	0.100
767.300	-5.167	0.100
767.400	1.709	0.100
767.500	1.256	0.100
767.600	-3.514	0.100
767.700	-7.796	0.100
767.800	-13.885	0.100
767.900	-3.851	0.100
768.000	-7.137	0.100
768.100	-13.875	0.100
768.200	-7.583	0.100
768.300	-8.425	0.100
768.400	-9.804	0.100
768.500	2.899	0.100
768.600	-9.650	0.100
768.700	-3.250	0.100
768.800	-12.194	0.100
768.900	-4.471	0.100
769.000	-4.101	0.100
769.100	-6.874	0.100
769.200	4.022	0.100
769.300	-7.085	0.100
769.400	-10.553	0.100
769.500	-12.571	0.100
769.600	-10.593	0.100
769.700	-9.301	0.100
769.800	-4.085	0.100
769.900	-0.698	0.100
770.000	-3.521	0.100
770.100	-1.598	0.100
770.200	-2.940	0.100
770.300	1.685	0.100
770.400	-8.464	0.100
770.500	-16.011	0.100
770.600	-7.828	0.100
770.700	-10.405	0.100
770.800	-5.509	0.100
770.900	-4.302	0.100
771.000	0.475	0.100
771.100	-1.007	0.100
771.200	-13.639	0.100
771.300	-7.513	0.100
771.400	-3.474	0.100
771.500	-9.493	0.100
771.600	-2.346	0.100
771.700	-17.261	0.100
771.800	-14.280	0.100
771.900	-7.478	0.100
772.000	1.828	0.100
772.100	-5.390	0.100
772.200	-13.001	0.100
772.300	-5.434	0.100
772.400	-17.792	0.100
772.500	4.226	0.100
772.600	-1.798	0.100
772.700	-3.137	0.100
772.800	-3.897	0.100
772.900	-5.000	0.100
773.000	-9.192	0.100
773.100	-4.535	0.100
773.200	3.100	0.100
773.300	0.466	0.100
773.400	-6.428	0.100
773.500	1.053	0.100
773.600	-6.018	0.100
773.700	-0.760	0.100
773.800	-4.972	0.100
773.900	-2.316	0.100
774.000	-8.913	0.100
774.100	-11.220	0.100
774.200	-5.407	0.100
774.300	-13.443	0.100
774.400	-13.373	0.100
774.500	-2.987	0.100
774.600	-6.614	0.100
774.700	-3.904	0.100
774.800	-5.989	0.100
774.900	-12.973	0.100
775.000	-11.103	0.100
775.100	-3.168	0.100
775.200	6.472	0.100
775.300	5.184	0.100
775.400	-3.224	0.100
775.500	-3.020	0.100
775.600	-4.426	0.100
775.700	-12.424	0.100
775.800	-7.570	0.100
775.900	-3.255	0.100
776.000	-6.017	0.100
776.100	-14.167	0.100
776.200	-5.389	0.100
776.300	-3.391	0.100
776.400	-14.210	0.100
776.500	-9.171	0.100
776.600	-6.935	0.100
776.700	-10.182	0.100
776.800	-8.431	0.100
776.900	-14.531	0.100
777.000	-2.719	0.100
777.100	-5.376	0.100
777.200	-3.105	0.100
777.300	-7.883	0.100
777.400	-6.307	0.100
777.500	1.242	0.100
777.600	-2.504	0.100
777.700	-4.102	0.100
777.800	-20.703	0.100
777.900	-0.286	0.100
778.000	-9.016	0.100
778.100	-11.056	0.100
778.200	-1.304	0.100
778.300	-4.357	0.100
778.400	0.178	0.100
778.500	-5.761	0.100
778.600	-6.232	0.100
778.700	-7.575	0.100
778.800	2.490	0.100
778.900	0.935	0.100
779.000	1.760	0.100
779.100	-7.363	0.100
779.200	-10.591	0.100
779.300	-6.983	0.100
779.400	-8.528	0.100
779.500	-15.599	0.100
779.600	-3.654	0.100
779.700	7.234	0.100
779.800	-5.453	0.100
779.900	4.851	0.100
780.000	-9.790	0.100
780.100	-6.392	0.100
780.200	-14.899	0.100
780.300	-10.499	0.100
780.400	-6.791	0.100
780.500	-1.888	0.100
780.600	-0.560	0.100
780.700	-9.297	0.100
780.800	-14.816	0.100
780.900	-2.800	0.100
781.000	-2.278	0.100
781.100	-10.673	0.100
781.200	4.280	0.100
781.300	-4.216	0.100
781.400	-2.222	0.100
781.500	1.233	0.100
781.600	-8.187	0.100
781.700	-3.655	0.100
781.800	2.127	0.100
781.900	-10.008	0.100
782.000	-5.092	0.100
782.100	-9.997	0.100
782.200	-11.704	0.100
782.300	-11.169	0.100
782.400	-9.218	0.100
782.500	4.588	0.100
782.600	-10.616	0.100
782.700	-6.533	0.100
782.800	-3.040	0.100
782.900	-4.827	0.100
783.000	-0.851	0.100
783.100	-8.933	0.100
783.200	-12.838	0.100
783.300	1.926	0.100
783.400	-8.556	0.100
783.500	-3.093	0.100
783.600	2.727	0.100
783.700	-11.001	0.100
783.800	3.360	0.100
783.900	-18.032	0.100
784.000	-1.727	0.100
784.100	-4.662	0.100
784.200	2.800	0.100
784.300	-1.277	0.100
784.400	-1.105	0.100
784.500	-3.695	0.100
784.600	-13.629	0.100
784.700	3.206	0.100
784.800	-7.022	0.100
784.900	-5.843	0.100
785.000	-9.077	0.100
785.100	-9.197	0.100
785.200	-5.284	0.100
785.300	6.321	0.100
785.400	-6.309	0.100
785.500	1.430	0.100
785.600	-7.737	0.100
785.700	-10.805	0.100
785.800	-7.675	0.100
785.900	-0.431	0.100
786.000	-12.052	0.100
786.100	-4.287	0.100
786.200	0.492	0.100
786.300	-5.250	0.100
786.400	-1.559	0.100
786.500	-0.059	0.100
786.600	-9.938	0.100
786.700	-0.359	0.100
786.800	-6.736	0.100
786.900	4.739	0.100
787.000	-3.211	0.100
787.100	5.014	0.100
787.200	-7.011	0.100
787.300	-5.036	0.100
787.400	-1.063	0.100
787.500	-6.262	0.100
787.600	-6.602	0.100
787.700	-12.917	0.100
787.800	5.573	0.100
787.900	2.634	0.100
788.000	-9.301	0.100
788.100	2.390	0.100
788.200	-11.126	0.100
788.300	-3.070	0.100
788.400	-8.322	0.100
788.500	-13.187	0.100
788.600	-3.617	0.100
788.700	11.169	0.100
788.800	-1.862	0.100
788.900	-10.677	0.100
789.000	-8.070	0.100
789.100	-4.919	0.100
789.200	-2.620	0.100
789.300	3.119	0.100
789.400	3.248	0.100
789.500	-0.851	0.100
789.600	-5.352	0.100
789.700	-2.614	0.100
789.800	-3.247	0.100
789.900	-2.493	0.100
790.000	7.853	0.100
790.100	0.879	0.100
790.200	-7.657	0.100
790.300	-1.526	0.100
790.400	-18.854	0.100
790.500	-10.273	0.100
790.600	4.007	0.100
790.700	-11.535	0.100
790.800	-2.423	0.100
790.900	5.229	0.100
791.000	-3.164	0.100
791.100	3.204	0.100
791.200	1.127	0.100
791.300	-9.862	0.100
791.400	-7.170	0.100
791.500	2.201	0.100
791.600	-8.592	0.100
791.700	-2.398	0.100
791.800	-1.640	0.100
791.900	-6.865	0.100
792.000	12.275	0.100
792.100	-7.965	0.100
792.200	-3.375	0.100
792.300	-10.406	0.100
792.400	-1.698	0.100
792.500	-0.698	0.100
792.600	-1.646	0.100
792.700	1.536	0.100
792.800	-2.907	0.100
792.900	1.644	0.100
793.000	1.204	0.100
793.100	-3.562	0.100
793.200	-0.365	0.100
793.300	-8.233	0.100
793.400	-3.669	0.100
793.500	0.454	0.100
793.600	-4.027	0.100
793.700	-9.553	0.100
793.800	-5.550	0.100
793.900	-8.733	0.100
794.000	1.075	0.100
794.100	-2.369	0.100
794.200	1.104	0.100
794.300	-0.317	0.100
794.400	-12.605	0.100
794.500	-12.662	0.100
794.600	9.101	0.100
794.700	5.562	0.100
794.800	-5.326	0.100
794.900	-3.453	0.100
795.000	0.841	0.100
795.100	11.984	0.100
795.200	-3.551	0.100
795.300	6.684	0.100
795.400	-10.125	0.100
795.500	-3.298	0.100
795.600	-3.337	0.100
795.700	4.558	0.100
795.800	-0.343	0.100
795.900	-2.133	0.100
796.000	-3.692	0.100
796.100	-5.262	0.100
796.200	-8.581	0.100
796.300	-5.877	0.100
796.400	-3.350	0.100
796.500	7.991	0.100
796.600	-3.665	0.100
796.700	-9.076	0.100
796.800	-0.855	0.100
796.900	-0.229	0.100
797.000	0.460	0.100
797.100	-5.398	0.100
797.200	-5.126	0.100
797.300	3.233	0.100
797.400	-6.814	0.100
797.500	2.380	0.100
797.600	-1.407	0.100
797.700	0.880	0.100
797.800	-5.194	0.100
797.900	-2.236	0.100
798.000	-5.806	0.100
798.100	-8.608	0.100
798.200	-1.243	0.100
798.300	3.717	0.100
798.400	-3.676	0.100
798.500	-3.184	0.100
798.600	-11.270	0.100
798.700	0.255	0.100
798.800	-2.047	0.100
798.900	-6.179	0.100
799.000	-0.736	0.100
799.100	-7.872	0.100
799.200	2.222	0.100
799.300	6.124	0.100
799.400	6.123	0.100
799.500	4.637	0.100
799.600	0.116	0.100
799.700	-20.430	0.100
799.800	-7.218	0.100
799.900	0.034	0.100
800.000	-4.714	0.100
