time /s	I /nA	E /V
0.100	-19.688	0.100
0.200	-19.713	0.100
0.300	-14.674	0.100
0.400	-15.698	0.100
0.500	-14.177	0.100
0.600	-12.044	0.100
0.700	-26.986	0.100
0.800	-18.959	0.100
0.900	-16.068	0.100
1.000	-14.919	0.100
1.100	-8.441	0.100
1.200	-11.332	0.100
1.300	-12.145	0.100
1.400	-13.899	0.100
1.500	-10.684	0.100
1.600	-19.418	0.100
1.700	-24.977	0.100
1.800	-7.855	0.100
1.900	-11.389	0.100
2.000	-17.564	0.100
2.100	-25.129	0.100
2.200	-13.758	0.100
2.300	-21.460	0.100
2.400	-22.434	0.100
2.500	-7.143	0.100
2.600	-14.098	0.100
2.700	-7.258	0.100
2.800	-14.051	0.100
2.900	-18.925	0.100
3.000	-20.798	0.100
3.100	-19.742	0.100
3.200	-17.968	0.100
3.300	-16.931	0.100
3.400	-14.378	0.100
3.500	-29.684	0.100
3.600	-21.497	0.100
3.700	-14.575	0.100
3.800	-6.910	0.100
3.900	-14.806	0.100
4.000	-14.782	0.100
4.100	-18.889	0.100
4.200	-20.493	0.100
4.300	-22.332	0.100
4.400	-21.521	0.100
4.500	-11.754	0.100
4.600	-10.852	0.100
4.700	-19.803	0.100
4.800	-18.097	0.100
4.900	-10.093	0.100
5.000	-14.914	0.100
5.100	-19.875	0.100
5.200	-19.525	0.100
5.300	-13.772	0.100
5.400	-13.206	0.100
5.500	-21.602	0.100
5.600	-20.480	0.100
5.700	-11.512	0.100
5.800	-25.159	0.100
5.900	-11.242	0.100
6.000	-18.347	0.100
6.100	-12.767	0.100
6.200	-6.671	0.100
6.300	-18.275	0.100
6.400	-16.675	0.100
6.500	-7.685	0.100
6.600	-17.714	0.100
6.700	-9.690	0.100
6.800	-16.706	0.100
6.900	-24.214	0.100
7.000	-22.918	0.100
7.100	-24.302	0.100
7.200	-18.503	0.100
7.300	-12.897	0.100
7.400	-11.129	0.100
7.500	-25.592	0.100
7.600	-14.475	0.100
7.700	-13.791	0.100
7.800	-17.128	0.100
7.900	-18.667	0.100
8.000	-8.625	0.100
8.100	-12.960	0.100
8.200	-19.078	0.100
8.300	-20.643	0.100
8.400	1.091	0.100
8.500	-14.254	0.100
8.600	-27.425	0.100
8.700	-13.589	0.100
8.800	-16.587	0.100
8.900	-14.553	0.100
9.000	-21.274	0.100
9.100	-13.287	0.100
9.200	-22.013	0.100
9.300	-16.737	0.100
9.400	-7.677	0.100
9.500	-15.800	0.100
9.600	-15.131	0.100
9.700	-12.775	0.100
9.800	-12.905	0.100
9.900	-12.687	0.100
10.000	-19.087	0.100
10.100	-27.332	0.100
10.200	-17.558	0.100
10.300	-13.016	0.100
10.400	-10.809	0.100
10.500	-18.360	0.100
10.600	-16.280	0.100
10.700	-18.754	0.100
10.800	-20.762	0.100
10.900	-23.615	0.100
11.000	-15.344	0.100
11.100	-12.635	0.100
11.200	-22.681	0.100
11.300	-7.712	0.100
11.400	-11.042	0.100
11.500	-17.612	0.100
11.600	-15.792	0.100
11.700	-13.741	0.100
11.800	-19.728	0.100
11.900	-11.977	0.100
12.000	-11.266	0.100
12.100	-15.956	0.100
12.200	-27.035	0.100
12.300	-7.564	0.100
12.400	-11.191	0.100
12.500	-12.841	0.100
12.600	-13.343	0.100
12.700	-19.149	0.100
12.800	-17.197	0.100
12.900	-17.123	0.100
13.000	-18.799	0.100
13.100	-10.416	0.100
13.200	-11.755	0.100
13.300	-18.422	0.100
13.400	-15.317	0.100
13.500	-6.460	0.100
13.600	-8.305	0.100
13.700	-11.488	0.100
13.800	-14.666	0.100
13.900	-2.866	0.100
14.000	-23.182	0.100
14.100	-19.058	0.100
14.200	-25.918	0.100
14.300	-13.235	0.100
14.400	-10.632	0.100
14.500	-16.585	0.100
14.600	-7.882	0.100
14.700	-18.685	0.100
14.800	-13.353	0.100
14.900	-20.452	0.100
15.000	-9.705	0.100
15.100	-16.760	0.100
15.200	-15.298	0.100
15.300	-25.577	0.100
15.400	-19.664	0.100
15.500	-7.434	0.100
15.600	-17.610	0.100
15.700	-26.672	0.100
15.800	-14.759	0.100
15.900	-4.898	0.100
16.000	-9.658	0.100
16.100	-15.349	0.100
16.200	-10.912	0.100
16.300	-12.476	0.100
16.400	-13.701	0.100
16.500	-18.878	0.100
16.600	-18.678	0.100
16.700	-26.202	0.100
16.800	-13.612	0.100
16.900	-14.101	0.100
17.000	-18.395	0.100
17.100	-17.124	0.100
17.200	-16.776	0.100
17.300	-14.440	0.100
17.400	-2.401	0.100
17.500	-15.648	0.100
17.600	-6.253	0.100
17.700	-7.017	0.100
17.800	-8.600	0.100
17.900	-14.719	0.100
18.000	-15.747	0.100
18.100	-18.222	0.100
18.200	-27.919	0.100
18.300	-4.925	0.100
18.400	-7.102	0.100
18.500	-14.606	0.100
18.600	-10.937	0.100
18.700	-14.453	0.100
18.800	-12.027	0.100
18.900	-26.897	0.100
19.000	-14.359	0.100
19.100	-20.063	0.100
19.200	-14.453	0.100
19.300	-13.911	0.100
19.400	-14.185	0.100
19.500	-23.349	0.100
19.600	-22.246	0.100
19.700	-9.845	0.100
19.800	-6.650	0.100
19.900	-3.667	0.100
20.000	-27.035	0.100
20.100	-12.145	0.100
20.200	-10.944	0.100
20.300	-15.577	0.100
20.400	-17.916	0.100
20.500	-7.593	0.100
20.600	-23.896	0.100
20.700	-1.947	0.100
20.800	-17.381	0.100
20.900	-11.348	0.100
21.000	-17.307	0.100
21.100	-15.581	0.100
21.200	-19.965	0.100
21.300	-10.894	0.100
21.400	-15.891	0.100
21.500	-15.519	0.100
21.600	-6.985	0.100
21.700	-15.904	0.100
21.800	-16.236	0.100
21.900	-22.279	0.100
22.000	-15.090	0.100
22.100	-13.304	0.100
22.200	-9.081	0.100
22.300	-18.008	0.100
22.400	-12.664	0.100
22.500	-7.518	0.100
22.600	-14.829	0.100
22.700	-13.246	0.100
22.800	-17.221	0.100
22.900	-12.399	0.100
23.000	-12.441	0.100
23.100	-17.106	0.100
23.200	-8.305	0.100
23.300	-7.699	0.100
23.400	-11.847	0.100
23.500	-15.327	0.100
23.600	-11.942	0.100
23.700	-24.678	0.100
23.800	-2.852	0.100
23.900	-16.759	0.100
24.000	-19.692	0.100
24.100	-17.043	0.100
24.200	-9.971	0.100
24.300	-10.784	0.100
24.400	-15.956	0.100
24.500	-16.145	0.100
24.600	-15.781	0.100
24.700	-15.331	0.100
24.800	-7.326	0.100
24.900	-8.744	0.100
25.000	-12.343	0.100
25.100	-18.890	0.100
25.200	-4.297	0.100
25.300	-17.544	0.100
25.400	-13.728	0.100
25.500	-12.883	0.100
25.600	-25.474	0.100
25.700	-16.068	0.100
25.800	-13.783	0.100
25.900	-11.996	0.100
26.000	-9.931	0.100
26.100	-12.419	0.100
26.200	-14.666	0.100
26.300	-12.095	0.100
26.400	-13.645	0.100
26.500	-9.023	0.100
26.600	-13.584	0.100
26.700	-6.694	0.100
26.800	-4.003	0.100
26.900	-23.481	0.100
27.000	-19.241	0.100
27.100	-10.089	0.100
27.200	-12.173	0.100
27.300	-16.958	0.100
27.400	-19.564	0.100
27.500	-10.967	0.100
27.600	-17.041	0.100
27.700	-9.932	0.100
27.800	-7.035	0.100
27.900	-13.927	0.100
28.000	-12.094	0.100
28.100	-21.912	0.100
28.200	-14.290	0.100
28.300	-5.533	0.100
28.400	-8.128	0.100
28.500	-15.801	0.100
28.600	-12.171	0.100
28.700	-6.421	0.100
28.800	-19.013	0.100
28.900	-5.729	0.100
29.000	-15.714	0.100
29.100	-13.294	0.100
29.200	-15.231	0.100
29.300	-26.048	0.100
29.400	-11.441	0.100
29.500	-3.914	0.100
29.600	-10.241	0.100
29.700	-8.478	0.100
29.800	-19.256	0.100
29.900	-13.200	0.100
30.000	-20.594	0.100
30.100	-16.825	0.100
30.200	-11.608	0.100
30.300	-12.815	0.100
30.400	-19.830	0.100
30.500	-17.550	0.100
30.600	-9.943	0.100
30.700	-9.456	0.100
30.800	-10.723	0.100
30.900	-20.253	0.100
31.000	-22.028	0.100
31.100	-7.996	0.100
31.200	-6.747	0.100
31.300	-14.703	0.100
31.400	-10.800	0.100
31.500	-3.280	0.100
31.600	-4.068	0.100
31.700	-18.392	0.100
31.800	-5.553	0.100
31.900	-13.973	0.100
32.000	-5.540	0.100
32.100	-6.560	0.100
32.200	-19.934	0.100
32.300	-12.525	0.100
32.400	-18.144	0.100
32.500	0.968	0.100
32.600	-9.253	0.100
32.700	-10.389	0.100
32.800	-15.906	0.100
32.900	-17.535	0.100
33.000	-13.437	0.100
33.100	-13.279	0.100
33.200	-11.090	0.100
33.300	-10.045	0.100
33.400	-14.631	0.100
33.500	-16.811	0.100
33.600	-17.330	0.100
33.700	-9.067	0.100
33.800	-8.682	0.100
33.900	-15.678	0.100
34.000	-12.441	0.100
34.100	-7.722	0.100
34.200	-18.231	0.100
34.300	-0.774	0.100
34.400	-19.803	0.100
34.500	-19.315	0.100
34.600	-1.338	0.100
34.700	-6.553	0.100
34.800	-7.342	0.100
34.900	-15.528	0.100
35.000	-14.327	0.100
35.100	-11.701	0.100
35.200	-12.177	0.100
35.300	-14.738	0.100
35.400	-5.890	0.100
35.500	-9.232	0.100
35.600	-14.810	0.100
35.700	-16.603	0.100
35.800	-11.319	0.100
35.900	2.485	0.100
36.000	-22.235	0.100
36.100	-14.766	0.100
36.200	-20.413	0.100
36.300	0.162	0.100
36.400	-7.114	0.100
36.500	-2.227	0.100
36.600	-6.109	0.100
36.700	-12.932	0.100
36.800	-14.715	0.100
36.900	-7.395	0.100
37.000	-7.105	0.100
37.100	-1.724	0.100
37.200	-9.225	0.100
37.300	-9.604	0.100
37.400	-15.865	0.100
37.500	-15.056	0.100
37.600	-5.254	0.100
37.700	-7.993	0.100
37.800	-9.908	0.100
37.900	-5.588	0.100
38.000	-14.785	0.100
38.100	-11.724	0.100
38.200	-1.312	0.100
38.300	-8.966	0.100
38.400	-13.729	0.100
38.500	-7.556	0.100
38.600	-9.995	0.100
38.700	-11.576	0.100
38.800	-16.674	0.100
38.900	-8.892	0.100
39.000	-15.916	0.100
39.100	-3.570	0.100
39.200	0.393	0.100
39.300	-13.636	0.100
39.400	-8.876	0.100
39.500	-22.912	0.100
39.600	-15.769	0.100
39.700	-8.107	0.100
39.800	-15.481	0.100
39.900	-9.140	0.100
40.000	-1.794	0.100
40.100	-14.774	0.100
40.200	-7.273	0.100
40.300	-9.741	0.100
40.400	-20.281	0.100
40.500	-9.470	0.100
40.600	-14.740	0.100
40.700	-7.291	0.100
40.800	-3.471	0.100
40.900	-16.807	0.100
41.000	4.794	0.100
41.100	-10.587	0.100
41.200	-11.077	0.100
41.300	-12.002	0.100
41.400	-4.992	0.100
41.500	0.367	0.100
41.600	-14.757	0.100
41.700	-11.768	0.100
41.800	-7.689	0.100
41.900	0.493	0.100
42.000	-6.359	0.100
42.100	-12.775	0.100
42.200	-9.625	0.100
42.300	-9.924	0.100
42.400	-6.228	0.100
42.500	-16.399	0.100
42.600	-2.552	0.100
42.700	-9.219	0.100
42.800	-12.169	0.100
42.900	-8.384	0.100
43.000	-5.272	0.100
43.100	-4.668	0.100
43.200	-10.459	0.100
43.300	-11.316	0.100
43.400	-2.149	0.100
43.500	-9.984	0.100
43.600	-15.895	0.100
43.700	-13.271	0.100
43.800	-12.535	0.100
43.900	-9.623	0.100
44.000	-12.555	0.100
44.100	-1.262	0.100
44.200	-5.806	0.100
44.300	-7.213	0.100
44.400	-8.747	0.100
44.500	-5.813	0.100
44.600	0.966	0.100
44.700	-9.172	0.100
44.800	-7.770	0.100
44.900	-7.722	0.100
45.000	3.696	0.100
45.100	-11.046	0.100
45.200	-12.223	0.100
45.300	-4.781	0.100
45.400	-16.691	0.100
45.500	-0.790	0.100
45.600	0.607	0.100
45.700	-15.247	0.100
45.800	-12.875	0.100
45.900	-5.349	0.100
46.000	-10.684	0.100
46.100	-14.705	0.100
46.200	-4.027	0.100
46.300	-4.617	0.100
46.400	-4.913	0.100
46.500	-4.438	0.100
46.600	-0.609	0.100
46.700	-12.511	0.100
46.800	-4.427	0.100
46.900	-19.938	0.100
47.000	-5.254	0.100
47.100	-3.723	0.100
47.200	-0.566	0.100
47.300	-3.268	0.100
47.400	-4.038	0.100
47.500	-9.721	0.100
47.600	-9.423	0.100
47.700	-10.459	0.100
47.800	2.045	0.100
47.900	-2.726	0.100
48.000	-8.843	0.100
48.100	-3.612	0.100
48.200	-1.273	0.100
48.300	-9.824	0.100
48.400	5.151	0.100
48.500	-9.738	0.100
48.600	-5.583	0.100
48.700	-8.867	0.100
48.800	-2.248	0.100
48.900	-11.737	0.100
49.000	-0.906	0.100
49.100	-1.627	0.100
49.200	-6.125	0.100
49.300	-12.499	0.100
49.400	-5.915	0.100
49.500	-4.659	0.100
49.600	0.650	0.100
49.700	-5.232	0.100
49.800	-14.030	0.100
49.900	-5.649	0.100
50.000	-0.071	0.100
50.100	-11.367	0.100
50.200	-3.857	0.100
50.300	-8.146	0.100
50.400	-9.710	0.100
50.500	-4.484	0.100
50.600	-6.067	0.100
50.700	-12.520	0.100
50.800	-7.832	0.100
50.900	-7.913	0.100
51.000	-10.271	0.100
51.100	-10.423	0.100
51.200	9.649	0.100
51.300	-15.372	0.100
51.400	-6.874	0.100
51.500	-2.076	0.100
51.600	-10.715	0.100
51.700	-5.641	0.100
51.800	-6.634	0.100
51.900	-5.646	0.100
52.000	-1.378	0.100
52.100	-11.262	0.100
52.200	-3.763	0.100
52.300	-13.153	0.100
52.400	-10.332	0.100
52.500	-4.142	0.100
52.600	-5.590	0.100
52.700	-6.500	0.100
52.800	-7.369	0.100
52.900	-7.745	0.100
53.000	-7.504	0.100
53.100	-4.218	0.100
53.200	-1.459	0.100
53.300	-3.818	0.100
53.400	-12.338	0.100
53.500	-9.966	0.100
53.600	-10.171	0.100
53.700	0.310	0.100
53.800	-2.427	0.100
53.900	-5.328	0.100
54.000	-2.232	0.100
54.100	-13.687	0.100
54.200	-6.242	0.100
54.300	-3.868	0.100
54.400	-5.175	0.100
54.500	-3.936	0.100
54.600	-6.836	0.100
54.700	-8.956	0.100
54.800	-8.904	0.100
54.900	1.333	0.100
55.000	-9.230	0.100
55.100	-7.565	0.100
55.200	0.282	0.100
55.300	-0.466	0.100
55.400	-12.765	0.100
55.500	-9.612	0.100
55.600	-9.759	0.100
55.700	-0.748	0.100
55.800	-6.254	0.100
55.900	-10.639	0.100
56.000	-4.036	0.100
56.100	-7.134	0.100
56.200	-2.259	0.100
56.300	-4.065	0.100
56.400	-0.658	0.100
56.500	5.412	0.100
56.600	-2.586	0.100
56.700	-3.873	0.100
56.800	-3.765	0.100
56.900	-10.109	0.100
57.000	-12.308	0.100
57.100	-6.291	0.100
57.200	-2.920	0.100
57.300	-3.597	0.100
57.400	-9.000	0.100
57.500	-7.369	0.100
57.600	-11.606	0.100
57.700	-0.663	0.100
57.800	2.852	0.100
57.900	5.079	0.100
58.000	-8.499	0.100
58.100	-3.415	0.100
58.200	-0.800	0.100
58.300	-8.154	0.100
58.400	-6.399	0.100
58.500	-15.972	0.100
58.600	-3.602	0.100
58.700	4.743	0.100
58.800	0.697	0.100
58.900	-22.048	0.100
59.000	-11.674	0.100
59.100	-8.275	0.100
59.200	3.676	0.100
59.300	-3.338	0.100
59.400	3.526	0.100
59.500	3.876	0.100
59.600	-7.253	0.100
59.700	-6.606	0.100
59.800	-12.824	0.100
59.900	1.901	0.100
60.000	-0.542	0.100
60.100	1.253	0.100
60.200	-13.762	0.100
60.300	-4.982	0.100
60.400	-9.548	0.100
60.500	0.578	0.100
60.600	-10.089	0.100
60.700	-1.782	0.100
60.800	1.172	0.100
60.900	-10.415	0.100
61.000	-5.598	0.100
61.100	-7.770	0.100
61.200	-6.477	0.100
61.300	-7.277	0.100
61.400	-7.460	0.100
61.500	-5.094	0.100
61.600	-2.325	0.100
61.700	-0.496	0.100
61.800	-4.532	0.100
61.900	-5.659	0.100
62.000	-5.147	0.100
62.100	9.866	0.100
62.200	-1.144	0.100
62.300	-6.692	0.100
62.400	-7.408	0.100
62.500	-4.964	0.100
62.600	-7.721	0.100
62.700	-10.576	0.100
62.800	-5.922	0.100
62.900	-5.152	0.100
63.000	-1.988	0.100
63.100	-5.797	0.100
63.200	-3.772	0.100
63.300	-6.720	0.100
63.400	-2.362	0.100
63.500	-9.372	0.100
63.600	-8.436	0.100
63.700	-4.126	0.100
63.800	-18.228	0.100
63.900	5.536	0.100
64.000	-10.043	0.100
64.100	1.050	0.100
64.200	9.877	0.100
64.300	-12.125	0.100
64.400	-10.858	0.100
64.500	-0.819	0.100
64.600	-0.405	0.100
64.700	-0.184	0.100
64.800	-1.688	0.100
64.900	-1.132	0.100
65.000	1.941	0.100
65.100	-11.488	0.100
65.200	3.100	0.100
65.300	-6.482	0.100
65.400	1.485	0.100
65.500	4.985	0.100
65.600	-4.406	0.100
65.700	-7.993	0.100
65.800	-9.508	0.100
65.900	-0.156	0.100
66.000	-3.575	0.100
66.100	-5.172	0.100
66.200	-4.762	0.100
66.300	-4.148	0.100
66.400	-15.259	0.100
66.500	-5.813	0.100
66.600	-17.796	0.100
66.700	-3.318	0.100
66.800	-7.475	0.100
66.900	-6.348	0.100
67.000	-3.349	0.100
67.100	-3.256	0.100
67.200	-1.924	0.100
67.300	3.609	0.100
67.400	-5.799	0.100
67.500	-1.173	0.100
67.600	1.818	0.100
67.700	-3.017	0.100
67.800	3.994	0.100
67.900	-15.725	0.100
68.000	-9.720	0.100
68.100	-6.402	0.100
68.200	-12.460	0.100
68.300	-5.064	0.100
68.400	-0.975	0.100
68.500	-1.172	0.100
68.600	1.045	0.100
68.700	-2.554	0.100
68.800	-5.449	0.100
68.900	-7.558	0.100
69.000	-8.385	0.100
69.100	1.216	0.100
69.200	3.419	0.100
69.300	-5.952	0.100
69.400	-0.177	0.100
69.500	-4.585	0.100
69.600	-12.869	0.100
69.700	-2.690	0.100
69.800	0.375	0.100
69.900	-2.112	0.100
70.000	-1.309	0.100
70.100	-8.320	0.100
70.200	-7.058	0.100
70.300	-8.229	0.100
70.400	-6.489	0.100
70.500	8.907	0.100
70.600	-1.101	0.100
70.700	-2.851	0.100
70.800	-8.043	0.100
70.900	-2.853	0.100
71.000	-10.281	0.100
71.100	-4.435	0.100
71.200	1.030	0.100
71.300	-5.256	0.100
71.400	-12.810	0.100
71.500	-3.967	0.100
71.600	-3.663	0.100
71.700	-13.822	0.100
71.800	0.089	0.100
71.900	-10.570	0.100
72.000	4.440	0.100
72.100	6.043	0.100
72.200	-4.119	0.100
72.300	-4.287	0.100
72.400	-8.458	0.100
72.500	-6.108	0.100
72.600	-4.403	0.100
72.700	-0.860	0.100
72.800	9.226	0.100
72.900	-5.062	0.100
73.000	-10.768	0.100
73.100	7.899	0.100
73.200	2.515	0.100
73.300	-1.262	0.100
73.400	-4.324	0.100
73.500	-5.486	0.100
73.600	-0.713	0.100
73.700	-0.391	0.100
73.800	2.263	0.100
73.900	-5.406	0.100
74.000	-6.198	0.100
74.100	-2.938	0.100
74.200	-1.216	0.100
74.300	-6.529	0.100
74.400	-1.527	0.100
74.500	-0.862	0.100
74.600	-8.147	0.100
74.700	-4.279	0.100
74.800	-5.698	0.100
74.900	-0.352	0.100
75.000	-7.878	0.100
75.100	9.227	0.100
75.200	-2.795	0.100
75.300	-11.913	0.100
75.400	-8.912	0.100
75.500	-4.258	0.100
75.600	-1.624	0.100
75.700	7.502	0.100
75.800	-4.810	0.100
75.900	-7.004	0.100
76.000	-2.076	0.100
76.100	3.002	0.100
76.200	-4.513	0.100
76.300	-5.000	0.100
76.400	-2.988	0.100
76.500	1.397	0.100
76.600	-9.848	0.100
76.700	-11.548	0.100
76.800	-4.583	0.100
76.900	-10.325	0.100
77.000	-0.498	0.100
77.100	-14.140	0.100
77.200	-6.634	0.100
77.300	4.628	0.100
77.400	-0.462	0.100
77.500	7.731	0.100
77.600	-7.761	0.100
77.700	-4.918	0.100
77.800	-10.581	0.100
77.900	-6.290	0.100
78.000	0.602	0.100
78.100	-0.704	0.100
78.200	8.610	0.100
78.300	7.259	0.100
78.400	-4.653	0.100
78.500	-6.717	0.100
78.600	-0.431	0.100
78.700	-0.427	0.100
78.800	-12.284	0.100
78.900	0.329	0.100
79.000	-0.679	0.100
79.100	-3.384	0.100
79.200	3.578	0.100
79.300	-11.817	0.100
79.400	-7.133	0.100
79.500	2.199	0.100
79.600	-0.989	0.100
79.700	1.049	0.100
79.800	-6.562	0.100
79.900	-4.654	0.100
80.000	-9.714	0.100
80.100	5.346	0.100
80.200	6.218	0.100
80.300	-3.666	0.100
80.400	-1.433	0.100
80.500	-1.716	0.100
80.600	5.001	0.100
80.700	6.299	0.100
80.800	1.339	0.100
80.900	-1.013	0.100
81.000	-1.834	0.100
81.100	-7.635	0.100
81.200	-2.197	0.100
81.300	-6.564	0.100
81.400	-3.083	0.100
81.500	-0.410	0.100
81.600	-3.622	0.100
81.700	1.955	0.100
81.800	-1.613	0.100
81.900	-3.702	0.100
82.000	-8.079	0.100
82.100	-4.300	0.100
82.200	-7.949	0.100
82.300	1.476	0.100
82.400	-9.047	0.100
82.500	0.603	0.100
82.600	-4.877	0.100
82.700	1.068	0.100
82.800	-1.860	0.100
82.900	-7.819	0.100
83.000	3.895	0.100
83.100	3.974	0.100
83.200	-3.260	0.100
83.300	-7.556	0.100
83.400	-0.623	0.100
83.500	0.051	0.100
83.600	-1.330	0.100
83.700	5.153	0.100
83.800	-0.126	0.100
83.900	2.176	0.100
84.000	-3.724	0.100
84.100	-0.845	0.100
84.200	-11.950	0.100
84.300	0.014	0.100
84.400	-9.672	0.100
84.500	-1.791	0.100
84.600	-13.029	0.100
84.700	-10.041	0.100
84.800	0.247	0.100
84.900	0.993	0.100
85.000	-0.648	0.100
85.100	-9.975	0.100
85.200	-0.181	0.100
85.300	-11.396	0.100
85.400	1.406	0.100
85.500	-4.870	0.100
85.600	-5.305	0.100
85.700	5.825	0.100
85.800	-2.906	0.100
85.900	-15.067	0.100
86.000	-4.088	0.100
86.100	-9.557	0.100
86.200	-9.913	0.100
86.300	0.490	0.100
86.400	-4.665	0.100
86.500	-11.202	0.100
86.600	3.557	0.100
86.700	-1.162	0.100
86.800	9.501	0.100
86.900	-7.008	0.100
87.000	1.220	0.100
87.100	-11.920	0.100
87.200	-0.931	0.100
87.300	-4.016	0.100
87.400	5.820	0.100
87.500	1.193	0.100
87.600	1.364	0.100
87.700	-13.960	0.100
87.800	2.499	0.100
87.900	8.390	0.100
88.000	-9.814	0.100
88.100	-4.932	0.100
88.200	9.706	0.100
88.300	-5.582	0.100
88.400	-4.716	0.100
88.500	-9.187	0.100
88.600	-7.728	0.100
88.700	4.414	0.100
88.800	1.980	0.100
88.900	-0.294	0.100
89.000	-7.767	0.100
89.100	-9.552	0.100
89.200	3.956	0.100
89.300	2.361	0.100
89.400	2.119	0.100
89.500	-8.276	0.100
89.600	-1.711	0.100
89.700	-6.232	0.100
89.800	-5.570	0.100
89.900	-7.503	0.100
90.000	0.022	0.100
90.100	-0.834	0.100
90.200	-1.447	0.100
90.300	0.877	0.100
90.400	-6.427	0.100
90.500	3.740	0.100
90.600	0.598	0.100
90.700	0.906	0.100
90.800	-3.495	0.100
90.900	7.120	0.100
91.000	3.516	0.100
91.100	-0.007	0.100
91.200	-2.693	0.100
91.300	-7.562	0.100
91.400	-7.397	0.100
91.500	-13.547	0.100
91.600	-9.846	0.100
91.700	-9.789	0.100
91.800	4.736	0.100
91.900	5.658	0.100
92.000	0.046	0.100
92.100	-3.146	0.100
92.200	-0.900	0.100
92.300	2.991	0.100
92.400	-3.342	0.100
92.500	3.275	0.100
92.600	-2.750	0.100
92.700	-9.313	0.100
92.800	-12.720	0.100
92.900	-3.349	0.100
93.000	-3.003	0.100
93.100	1.903	0.100
93.200	-9.499	0.100
93.300	-2.325	0.100
93.400	5.710	0.100
93.500	-0.974	0.100
93.600	-9.790	0.100
93.700	-7.933	0.100
93.800	-2.852	0.100
93.900	1.495	0.100
94.000	-2.094	0.100
94.100	0.360	0.100
94.200	-6.115	0.100
94.300	-1.176	0.100
94.400	-7.593	0.100
94.500	-1.524	0.100
94.600	-1.191	0.100
94.700	-15.372	0.100
94.800	6.021	0.100
94.900	-4.861	0.100
95.000	1.267	0.100
95.100	-7.120	0.100
95.200	2.100	0.100
95.300	-5.777	0.100
95.400	-2.271	0.100
95.500	-10.036	0.100
95.600	-8.633	0.100
95.700	-11.927	0.100
95.800	-5.305	0.100
95.900	-4.789	0.100
96.000	-7.788	0.100
96.100	-4.825	0.100
96.200	6.893	0.100
96.300	-8.635	0.100
96.400	-7.107	0.100
96.500	2.079	0.100
96.600	-7.780	0.100
96.700	-4.102	0.100
96.800	-3.397	0.100
96.900	-1.575	0.100
97.000	-4.836	0.100
97.100	0.947	0.100
97.200	-2.426	0.100
97.300	-13.375	0.100
97.400	12.371	0.100
97.500	-9.439	0.100
97.600	-9.269	0.100
97.700	-17.245	0.100
97.800	-6.564	0.100
97.900	-10.440	0.100
98.000	4.009	0.100
98.100	-4.215	0.100
98.200	3.438	0.100
98.300	-0.379	0.100
98.400	-13.524	0.100
98.500	-16.818	0.100
98.600	1.202	0.100
98.700	-11.085	0.100
98.800	3.304	0.100
98.900	-5.929	0.100
99.000	-3.825	0.100
99.100	-10.777	0.100
99.200	4.256	0.100
99.300	-2.979	0.100
99.400	-4.830	0.100
99.500	-10.056	0.100
99.600	-8.858	0.100
99.700	-9.337	0.100
99.800	-3.947	0.100
99.900	-0.417	0.100
100.000	-0.598	0.100
100.100	-7.006	0.100
100.200	-13.629	0.100
100.300	-7.653	0.100
100.400	-1.875	0.100
100.500	-4.482	0.100
100.600	-1.780	0.100
100.700	-14.192	0.100
100.800	-9.121	0.100
100.900	-5.371	0.100
101.000	-8.104	0.100
101.100	-2.284	0.100
101.200	-0.380	0.100
101.300	-6.652	0.100
101.400	0.054	0.100
101.500	-13.604	0.100
101.600	-1.751	0.100
101.700	-4.806	0.100
101.800	-0.178	0.100
101.900	-7.019	0.100
102.000	-4.286	0.100
102.100	-7.687	0.100
102.200	5.372	0.100
102.300	-7.270	0.100
102.400	1.538	0.100
102.500	-8.461	0.100
102.600	-8.591	0.100
102.700	-17.733	0.100
102.800	-4.478	0.100
102.900	-8.764	0.100
103.000	-0.730	0.100
103.100	4.725	0.100
103.200	-0.353	0.100
103.300	-1.425	0.100
103.400	-15.535	0.100
103.500	-3.963	0.100
103.600	-8.739	0.100
103.700	-4.343	0.100
103.800	1.360	0.100
103.900	-17.407	0.100
104.000	-8.451	0.100
104.100	-2.360	0.100
104.200	-11.157	0.100
104.300	-5.433	0.100
104.400	-4.984	0.100
104.500	-2.421	0.100
104.600	1.477	0.100
104.700	-5.445	0.100
104.800	-8.896	0.100
104.900	-0.766	0.100
105.000	-5.051	0.100
105.100	-12.949	0.100
105.200	-6.160	0.100
105.300	3.419	0.100
105.400	-9.319	0.100
105.500	4.678	0.100
105.600	-6.088	0.100
105.700	-2.102	0.100
105.800	-7.963	0.100
105.900	-4.281	0.100
106.000	-11.340	0.100
106.100	-6.891	0.100
106.200	-15.096	0.100
106.300	-9.155	0.100
106.400	-7.477	0.100
106.500	-5.390	0.100
106.600	-5.816	0.100
106.700	3.168	0.100
106.800	-0.055	0.100
106.900	-13.136	0.100
107.000	3.237	0.100
107.100	-14.293	0.100
107.200	-5.760	0.100
107.300	-8.659	0.100
107.400	-2.299	0.100
107.500	-4.161	0.100
107.600	-5.160	0.100
107.700	-9.865	0.100
107.800	1.046	0.100
107.900	-10.237	0.100
108.000	-11.436	0.100
108.100	-14.319	0.100
108.200	-1.879	0.100
108.300	-15.231	0.100
108.400	-4.203	0.100
108.500	5.271	0.100
108.600	4.301	0.100
108.700	-19.667	0.100
108.800	-14.857	0.100
108.900	-17.429	0.100
109.000	1.682	0.100
109.100	5.606	0.100
109.200	-8.351	0.100
109.300	-8.571	0.100
109.400	-3.055	0.100
109.500	-0.455	0.100
109.600	-16.555	0.100
109.700	-5.298	0.100
109.800	-11.689	0.100
109.900	-6.320	0.100
110.000	4.517	0.100
110.100	-5.047	0.100
110.200	1.460	0.100
110.300	-4.541	0.100
110.400	-1.853	0.100
110.500	-1.122	0.100
110.600	-18.532	0.100
110.700	4.137	0.100
110.800	-7.257	0.100
110.900	-7.132	0.100
111.000	-11.668	0.100
111.100	3.448	0.100
111.200	-10.582	0.100
111.300	-3.840	0.100
111.400	-12.632	0.100
111.500	-5.596	0.100
111.600	8.784	0.100
111.700	-6.100	0.100
111.800	-1.401	0.100
111.900	-16.998	0.100
112.000	-14.505	0.100
112.100	-4.549	0.100
112.200	-1.168	0.100
112.300	-6.425	0.100
112.400	2.466	0.100
112.500	-9.575	0.100
112.600	-5.734	0.100
112.700	-9.508	0.100
112.800	-0.249	0.100
112.900	-8.529	0.100
113.000	-5.212	0.100
113.100	-2.109	0.100
113.200	-2.304	0.100
113.300	-4.408	0.100
113.400	-1.310	0.100
113.500	-0.464	0.100
113.600	-14.084	0.100
113.700	-12.587	0.100
113.800	-5.385	0.100
113.900	-4.618	0.100
114.000	2.440	0.100
114.100	-5.478	0.100
114.200	-7.300	0.100
114.300	-9.106	0.100
114.400	-8.197	0.100
114.500	-5.918	0.100
114.600	-13.467	0.100
114.700	2.849	0.100
114.800	-5.543	0.100
114.900	2.144	0.100
115.000	-5.625	0.100
115.100	-9.078	0.100
115.200	-10.872	0.100
115.300	1.356	0.100
115.400	-11.001	0.100
115.500	-6.443	0.100
115.600	-17.527	0.100
115.700	-3.380	0.100
115.800	6.377	0.100
115.900	-2.366	0.100
116.000	-15.193	0.100
116.100	-9.206	0.100
116.200	-6.771	0.100
116.300	-4.546	0.100
116.400	-3.386	0.100
116.500	-16.120	0.100
116.600	1.669	0.100
116.700	-11.175	0.100
116.800	-11.273	0.100
116.900	-8.458	0.100
117.000	-20.040	0.100
117.100	-9.906	0.100
117.200	2.254	0.100
117.300	-10.273	0.100
117.400	-4.655	0.100
117.500	-14.227	0.100
117.600	0.751	0.100
117.700	-6.082	0.100
117.800	-11.516	0.100
117.900	-19.663	0.100
118.000	13.838	0.100
118.100	-2.670	0.100
118.200	-4.223	0.100
118.300	-20.890	0.100
118.400	-14.347	0.100
118.500	-3.169	0.100
118.600	-6.360	0.100
118.700	-14.509	0.100
118.800	-14.835	0.100
118.900	-9.824	0.100
119.000	-0.400	0.100
119.100	-6.516	0.100
119.200	-11.019	0.100
119.300	-5.746	0.100
119.400	-15.436	0.100
119.500	-9.823	0.100
119.600	-16.099	0.100
119.700	-5.946	0.100
119.800	4.801	0.100
119.900	-14.804	0.100
120.000	-7.393	0.100
120.100	-4.116	0.100
120.200	-6.028	0.100
120.300	-3.582	0.100
120.400	-4.462	0.100
120.500	-6.218	0.100
120.600	-11.247	0.100
120.700	1.107	0.100
120.800	-11.143	0.100
120.900	-15.901	0.100
121.000	-5.571	0.100
121.100	-4.676	0.100
121.200	-10.115	0.100
121.300	-11.565	0.100
121.400	-3.368	0.100
121.500	-7.886	0.100
121.600	-8.384	0.100
121.700	-0.610	0.100
121.800	-8.864	0.100
121.900	-3.523	0.100
122.000	-8.640	0.100
122.100	-13.754	0.100
122.200	5.149	0.100
122.300	-0.799	0.100
122.400	-15.966	0.100
122.500	-14.002	0.100
122.600	-3.186	0.100
122.700	-9.257	0.100
122.800	-4.644	0.100
122.900	-12.496	0.100
123.000	-9.896	0.100
123.100	-7.405	0.100
123.200	-2.099	0.100
123.300	-15.037	0.100
123.400	-4.559	0.100
123.500	1.139	0.100
123.600	-7.444	0.100
123.700	3.158	0.100
123.800	1.313	0.100
123.900	-4.339	0.100
124.000	-6.997	0.100
124.100	-9.630	0.100
124.200	-2.313	0.100
124.300	-7.448	0.100
124.400	-11.257	0.100
124.500	-1.650	0.100
124.600	-4.884	0.100
124.700	-5.730	0.100
124.800	0.226	0.100
124.900	-3.641	0.100
125.000	-9.354	0.100
125.100	1.161	0.100
125.200	-2.002	0.100
125.300	-14.223	0.100
125.400	-12.132	0.100
125.500	-14.913	0.100
125.600	-6.210	0.100
125.700	-12.655	0.100
125.800	-12.886	0.100
125.900	-10.477	0.100
126.000	-8.991	0.100
126.100	-6.703	0.100
126.200	-14.734	0.100
126.300	-6.322	0.100
126.400	-10.627	0.100
126.500	-1.838	0.100
126.600	-17.918	0.100
126.700	-1.975	0.100
126.800	4.236	0.100
126.900	-5.967	0.100
127.000	-10.021	0.100
127.100	0.949	0.100
127.200	-0.865	0.100
127.300	-10.369	0.100
127.400	-11.632	0.100
127.500	-0.845	0.100
127.600	-11.764	0.100
127.700	-1.100	0.100
127.800	-7.777	0.100
127.900	-11.751	0.100
128.000	-4.996	0.100
128.100	-11.859	0.100
128.200	-3.848	0.100
128.300	-11.384	0.100
128.400	1.693	0.100
128.500	-13.380	0.100
128.600	-11.487	0.100
128.700	-17.683	0.100
128.800	1.054	0.100
128.900	-7.782	0.100
129.000	-4.208	0.100
129.100	-10.246	0.100
129.200	0.133	0.100
129.300	1.771	0.100
129.400	-4.076	0.100
129.500	-10.583	0.100
129.600	-13.338	0.100
129.700	-6.456	0.100
129.800	-10.626	0.100
129.900	-2.386	0.100
130.000	-13.506	0.100
130.100	-7.259	0.100
130.200	-10.619	0.100
130.300	-6.601	0.100
130.400	-7.299	0.100
130.500	-9.404	0.100
130.600	-9.495	0.100
130.700	-1.474	0.100
130.800	-12.927	0.100
130.900	-8.233	0.100
131.000	-6.047	0.100
131.100	0.037	0.100
131.200	-7.790	0.100
131.300	-16.654	0.100
131.400	0.041	0.100
131.500	-18.625	0.100
131.600	-6.283	0.100
131.700	-11.880	0.100
131.800	-3.713	0.100
131.900	-3.254	0.100
132.000	-6.368	0.100
132.100	-1.796	0.100
132.200	-12.438	0.100
132.300	-11.321	0.100
132.400	-3.263	0.100
132.500	-9.432	0.100
132.600	-4.221	0.100
132.700	-9.073	0.100
132.800	-14.481	0.100
132.900	-8.500	0.100
133.000	-8.276	0.100
133.100	-6.152	0.100
133.200	3.551	0.100
133.300	-13.475	0.100
133.400	-7.046	0.100
133.500	-10.115	0.100
133.600	-8.538	0.100
133.700	-8.822	0.100
133.800	-16.413	0.100
133.900	4.010	0.100
134.000	1.103	0.100
134.100	-20.704	0.100
134.200	-17.826	0.100
134.300	-5.614	0.100
134.400	-11.441	0.100
134.500	-8.809	0.100
134.600	-5.899	0.100
134.700	-8.205	0.100
134.800	-6.158	0.100
134.900	-5.378	0.100
135.000	-13.353	0.100
135.100	0.238	0.100
135.200	-9.135	0.100
135.300	-7.800	0.100
135.400	2.156	0.100
135.500	-7.350	0.100
135.600	-11.297	0.100
135.700	0.403	0.100
135.800	-7.441	0.100
135.900	-11.744	0.100
136.000	4.336	0.100
136.100	-3.069	0.100
136.200	-4.735	0.100
136.300	-8.373	0.100
136.400	-1.380	0.100
136.500	-1.893	0.100
136.600	-11.497	0.100
136.700	-6.281	0.100
136.800	-9.107	0.100
136.900	-9.270	0.100
137.000	-4.671	0.100
137.100	-4.000	0.100
137.200	-9.178	0.100
137.300	-4.369	0.100
137.400	-9.463	0.100
137.500	0.815	0.100
137.600	-5.242	0.100
137.700	-19.037	0.100
137.800	-6.357	0.100
137.900	-9.109	0.100
138.000	-6.246	0.100
138.100	-2.867	0.100
138.200	3.177	0.100
138.300	-6.153	0.100
138.400	-9.193	0.100
138.500	-4.586	0.100
138.600	-5.545	0.100
138.700	-12.462	0.100
138.800	-1.421	0.100
138.900	-2.419	0.100
139.000	-6.117	0.100
139.100	-5.597	0.100
139.200	-3.452	0.100
139.300	-5.791	0.100
139.400	-15.584	0.100
139.500	-14.311	0.100
139.600	-12.377	0.100
139.700	-11.479	0.100
139.800	-9.646	0.100
139.900	2.765	0.100
140.000	-4.744	0.100
140.100	-10.199	0.100
140.200	0.388	0.100
140.300	-5.790	0.100
140.400	-6.112	0.100
140.500	-12.573	0.100
140.600	-6.206	0.100
140.700	-0.644	0.100
140.800	-4.999	0.100
140.900	-3.656	0.100
141.000	-11.211	0.100
141.100	-14.764	0.100
141.200	-15.133	0.100
141.300	2.746	0.100
141.400	-7.304	0.100
141.500	-9.045	0.100
141.600	-5.429	0.100
141.700	-10.147	0.100
141.800	-15.233	0.100
141.900	-11.019	0.100
142.000	-3.591	0.100
142.100	-2.109	0.100
142.200	-3.887	0.100
142.300	2.240	0.100
142.400	-9.557	0.100
142.500	-4.202	0.100
142.600	-9.361	0.100
142.700	-6.637	0.100
142.800	-10.573	0.100
142.900	-15.075	0.100
143.000	-10.475	0.100
143.100	-3.491	0.100
143.200	-7.113	0.100
143.300	-12.701	0.100
143.400	-6.742	0.100
143.500	-5.258	0.100
143.600	-5.594	0.100
143.700	-7.627	0.100
143.800	-5.640	0.100
143.900	3.105	0.100
144.000	-14.833	0.100
144.100	-16.163	0.100
144.200	-2.983	0.100
144.300	-2.117	0.100
144.400	-2.742	0.100
144.500	-3.889	0.100
144.600	-15.524	0.100
144.700	-5.934	0.100
144.800	-14.698	0.100
144.900	-13.267	0.100
145.000	-6.263	0.100
145.100	2.592	0.100
145.200	-6.287	0.100
145.300	-4.926	0.100
145.400	-11.789	0.100
145.500	-8.617	0.100
145.600	-2.151	0.100
145.700	-8.373	0.100
145.800	1.788	0.100
145.900	-2.830	0.100
146.000	-6.906	0.100
146.100	-18.675	0.100
146.200	-5.079	0.100
146.300	-3.348	0.100
146.400	-6.315	0.100
146.500	-10.938	0.100
146.600	-5.801	0.100
146.700	0.441	0.100
146.800	-6.117	0.100
146.900	-18.215	0.100
147.000	-9.569	0.100
147.100	-6.610	0.100
147.200	-5.072	0.100
147.300	-1.185	0.100
147.400	-6.699	0.100
147.500	-7.963	0.100
147.600	-11.846	0.100
147.700	-7.479	0.100
147.800	-3.980	0.100
147.900	-2.132	0.100
148.000	-2.673	0.100
148.100	-3.073	0.100
148.200	-14.536	0.100
148.300	-5.241	0.100
148.400	-15.473	0.100
148.500	-4.077	0.100
148.600	-3.427	0.100
148.700	1.393	0.100
148.800	-7.905	0.100
148.900	-9.444	0.100
149.000	-14.570	0.100
149.100	1.464	0.100
149.200	-2.663	0.100
149.300	0.176	0.100
149.400	-8.620	0.100
149.500	-8.153	0.100
149.600	-14.463	0.100
149.700	0.656	0.100
149.800	-8.122	0.100
149.900	-3.455	0.100
150.000	-11.435	0.100
150.100	-2.661	0.100
150.200	-2.012	0.100
150.300	-12.055	0.100
150.400	-9.330	0.100
150.500	-1.571	0.100
150.600	-10.353	0.100
150.700	-5.895	0.100
150.800	-0.270	0.100
150.900	-9.523	0.100
151.000	-9.541	0.100
151.100	-11.388	0.100
151.200	-5.545	0.100
151.300	-4.825	0.100
151.400	-2.442	0.100
151.500	-3.701	0.100
151.600	-0.917	0.100
151.700	-8.784	0.100
151.800	-9.486	0.100
151.900	-6.171	0.100
152.000	-8.542	0.100
152.100	-6.179	0.100
152.200	-6.052	0.100
152.300	-3.182	0.100
152.400	-4.670	0.100
152.500	-5.857	0.100
152.600	-5.863	0.100
152.700	-4.429	0.100
152.800	-13.369	0.100
152.900	-2.579	0.100
153.000	-13.166	0.100
153.100	-4.493	0.100
153.200	-12.475	0.100
153.300	-0.664	0.100
153.400	-7.967	0.100
153.500	-6.195	0.100
153.600	3.352	0.100
153.700	-5.827	0.100
153.800	-12.219	0.100
153.900	-15.728	0.100
154.000	1.051	0.100
154.100	-8.054	0.100
154.200	-2.982	0.100
154.300	-0.560	0.100
154.400	-9.929	0.100
154.500	0.098	0.100
154.600	4.923	0.100
154.700	-5.208	0.100
154.800	-12.585	0.100
154.900	-11.417	0.100
155.000	10.107	0.100
155.100	-9.413	0.100
155.200	-15.864	0.100
155.300	-10.975	0.100
155.400	-13.451	0.100
155.500	-18.015	0.100
155.600	-2.974	0.100
155.700	1.419	0.100
155.800	-10.070	0.100
155.900	-7.133	0.100
156.000	-14.721	0.100
156.100	-6.579	0.100
156.200	0.387	0.100
156.300	1.836	0.100
156.400	-9.907	0.100
156.500	-13.555	0.100
156.600	-19.513	0.100
156.700	-2.399	0.100
156.800	15.119	0.100
156.900	-5.636	0.100
157.000	-7.335	0.100
157.100	-5.995	0.100
157.200	-3.778	0.100
157.300	-12.599	0.100
157.400	-15.329	0.100
157.500	-0.601	0.100
157.600	-1.159	0.100
157.700	-1.069	0.100
157.800	-6.494	0.100
157.900	-18.757	0.100
158.000	1.192	0.100
158.100	-0.375	0.100
158.200	-1.919	0.100
158.300	-14.791	0.100
158.400	-5.494	0.100
158.500	-0.190	0.100
158.600	-12.959	0.100
158.700	-12.864	0.100
158.800	-3.146	0.100
158.900	-3.457	0.100
159.000	-4.206	0.100
159.100	-10.101	0.100
159.200	-9.309	0.100
159.300	-9.603	0.100
159.400	-1.834	0.100
159.500	0.072	0.100
159.600	-5.207	0.100
159.700	-12.019	0.100
159.800	-5.738	0.100
159.900	-14.116	0.100
160.000	-11.571	0.100
160.100	3.485	0.100
160.200	-5.000	0.100
160.300	0.939	0.100
160.400	6.522	0.100
160.500	-9.606	0.100
160.600	-8.093	0.100
160.700	-3.466	0.100
160.800	-6.933	0.100
160.900	-5.627	0.100
161.000	-13.406	0.100
161.100	-13.736	0.100
161.200	3.035	0.100
161.300	-16.075	0.100
161.400	4.462	0.100
161.500	3.506	0.100
161.600	-5.244	0.100
161.700	-0.312	0.100
161.800	-6.953	0.100
161.900	-0.697	0.100
162.000	-9.202	0.100
162.100	-11.784	0.100
162.200	-0.971	0.100
162.300	-8.764	0.100
162.400	-12.488	0.100
162.500	-12.781	0.100
162.600	-10.260	0.100
162.700	1.410	0.100
162.800	-5.204	0.100
162.900	-8.435	0.100
163.000	-10.431	0.100
163.100	-1.963	0.100
163.200	-5.016	0.100
163.300	-9.893	0.100
163.400	-2.208	0.100
163.500	-13.378	0.100
163.600	-9.165	0.100
163.700	-9.970	0.100
163.800	2.754	0.100
163.900	1.516	0.100
164.000	-3.376	0.100
164.100	-1.557	0.100
164.200	-10.270	0.100
164.300	-1.331	0.100
164.400	-2.177	0.100
164.500	-5.131	0.100
164.600	-13.762	0.100
164.700	-5.147	0.100
164.800	-14.875	0.100
164.900	-12.906	0.100
165.000	-4.466	0.100
165.100	-2.542	0.100
165.200	-4.651	0.100
165.300	-3.522	0.100
165.400	-8.236	0.100
165.500	-4.091	0.100
165.600	-13.767	0.100
165.700	-0.301	0.100
165.800	-6.890	0.100
165.900	5.707	0.100
166.000	-5.757	0.100
166.100	-1.040	0.100
166.200	-8.661	0.100
166.300	-6.872	0.100
166.400	2.035	0.100
166.500	-18.800	0.100
166.600	-10.855	0.100
166.700	1.340	0.100
166.800	-4.583	0.100
166.900	1.236	0.100
167.000	4.020	0.100
167.100	-0.292	0.100
167.200	-14.388	0.100
167.300	-5.225	0.100
167.400	-0.766	0.100
167.500	-12.053	0.100
167.600	-8.274	0.100
167.700	-5.226	0.100
167.800	-11.946	0.100
167.900	-10.769	0.100
168.000	-1.481	0.100
168.100	6.147	0.100
168.200	-4.190	0.100
168.300	-5.359	0.100
168.400	-8.378	0.100
168.500	-1.146	0.100
168.600	-10.397	0.100
168.700	-4.337	0.100
168.800	8.092	0.100
168.900	-1.398	0.100
169.000	-8.663	0.100
169.100	-5.829	0.100
169.200	-1.372	0.100
169.300	-10.560	0.100
169.400	-7.185	0.100
169.500	-2.950	0.100
169.600	-8.914	0.100
169.700	-6.785	0.100
169.800	-5.450	0.100
169.900	-2.844	0.100
170.000	1.272	0.100
170.100	-1.522	0.100
170.200	-10.748	0.100
170.300	1.073	0.100
170.400	-3.925	0.100
170.500	-13.800	0.100
170.600	-17.894	0.100
170.700	-7.081	0.100
170.800	-5.207	0.100
170.900	-7.651	0.100
171.000	-4.253	0.100
171.100	-7.462	0.100
171.200	-12.577	0.100
171.300	2.441	0.100
171.400	-4.983	0.100
171.500	-14.959	0.100
171.600	-1.102	0.100
171.700	1.124	0.100
171.800	-4.968	0.100
171.900	1.904	0.100
172.000	-0.222	0.100
172.100	-6.869	0.100
172.200	-1.039	0.100
172.300	-6.860	0.100
172.400	-10.098	0.100
172.500	3.207	0.100
172.600	-1.500	0.100
172.700	0.725	0.100
172.800	0.136	0.100
172.900	-3.834	0.100
173.000	-17.384	0.100
173.100	-0.752	0.100
173.200	-2.717	0.100
173.300	-23.606	0.100
173.400	-9.583	0.100
173.500	5.069	0.100
173.600	-0.422	0.100
173.700	0.180	0.100
173.800	-7.337	0.100
173.900	-6.301	0.100
174.000	0.856	0.100
174.100	-2.181	0.100
174.200	-2.322	0.100
174.300	-7.950	0.100
174.400	-5.692	0.100
174.500	-10.620	0.100
174.600	5.729	0.100
174.700	-11.571	0.100
174.800	-11.033	0.100
174.900	-2.790	0.100
175.000	-9.626	0.100
175.100	-5.620	0.100
175.200	-1.317	0.100
175.300	-3.549	0.100
175.400	-17.413	0.100
175.500	-3.675	0.100
175.600	-0.578	0.100
175.700	-7.511	0.100
175.800	-1.928	0.100
175.900	-3.238	0.100
176.000	-4.595	0.100
176.100	-11.031	0.100
176.200	-1.590	0.100
176.300	-4.482	0.100
176.400	-3.774	0.100
176.500	-1.622	0.100
176.600	-9.145	0.100
176.700	-4.997	0.100
176.800	-12.712	0.100
176.900	-10.469	0.100
177.000	-6.262	0.100
177.100	-0.525	0.100
177.200	-4.531	0.100
177.300	-1.822	0.100
177.400	1.406	0.100
177.500	-0.270	0.100
177.600	4.973	0.100
177.700	-11.294	0.100
177.800	-3.698	0.100
177.900	-2.629	0.100
178.000	-3.695	0.100
178.100	-2.967	0.100
178.200	-6.624	0.100
178.300	-15.583	0.100
178.400	-6.384	0.100
178.500	-1.469	0.100
178.600	1.722	0.100
178.700	-7.676	0.100
178.800	-3.718	0.100
178.900	-6.130	0.100
179.000	-3.297	0.100
179.100	5.279	0.100
179.200	-16.714	0.100
179.300	-3.156	0.100
179.400	0.711	0.100
179.500	5.226	0.100
179.600	-9.965	0.100
179.700	-8.722	0.100
179.800	-21.270	0.100
179.900	-9.178	0.100
180.000	-5.125	0.100
180.100	-4.530	0.100
180.200	4.465	0.100
180.300	-11.518	0.100
180.400	-1.221	0.100
180.500	0.747	0.100
180.600	1.231	0.100
180.700	3.652	0.100
180.800	-2.265	0.100
180.900	-7.067	0.100
181.000	-5.549	0.100
181.100	-1.193	0.100
181.200	2.813	0.100
181.300	2.175	0.100
181.400	-2.208	0.100
181.500	-12.003	0.100
181.600	-7.507	0.100
181.700	8.004	0.100
181.800	-4.135	0.100
181.900	3.905	0.100
182.000	2.092	0.100
182.100	-10.091	0.100
182.200	-8.694	0.100
182.300	-0.264	0.100
182.400	-10.039	0.100
182.500	-2.334	0.100
182.600	0.207	0.100
182.700	-1.686	0.100
182.800	1.021	0.100
182.900	-7.363	0.100
183.000	-1.963	0.100
183.100	-8.463	0.100
183.200	2.915	0.100
183.300	-7.842	0.100
183.400	1.973	0.100
183.500	-7.422	0.100
183.600	-0.994	0.100
183.700	-10.801	0.100
183.800	1.509	0.100
183.900	-5.269	0.100
184.000	-8.475	0.100
184.100	-7.037	0.100
184.200	-3.198	0.100
184.300	4.581	0.100
184.400	8.008	0.100
184.500	0.691	0.100
184.600	0.313	0.100
184.700	7.204	0.100
184.800	-7.726	0.100
184.900	-9.827	0.100
185.000	2.687	0.100
185.100	9.560	0.100
185.200	6.554	0.100
185.300	-7.420	0.100
185.400	-8.325	0.100
185.500	-5.947	0.100
185.600	0.028	0.100
185.700	-0.999	0.100
185.800	12.361	0.100
185.900	-3.234	0.100
186.000	-5.592	0.100
186.100	-0.588	0.100
186.200	-2.988	0.100
186.300	-0.270	0.100
186.400	11.402	0.100
186.500	3.186	0.100
186.600	-8.376	0.100
186.700	-1.113	0.100
186.800	-6.905	0.100
186.900	-0.893	0.100
187.000	-3.322	0.100
187.100	-4.125	0.100
187.200	9.450	0.100
187.300	-4.416	0.100
187.400	0.229	0.100
187.500	2.952	0.100
187.600	-2.299	0.100
187.700	1.285	0.100
187.800	4.738	0.100
187.900	-1.479	0.100
188.000	-0.017	0.100
188.100	6.056	0.100
188.200	1.760	0.100
188.300	7.455	0.101
188.400	8.329	0.101
188.500	4.374	0.100
188.600	-2.179	0.101
188.700	-9.244	0.101
188.800	0.473	0.101
188.900	4.462	0.101
189.000	-3.758	0.101
189.100	-4.211	0.101
189.200	1.323	0.101
189.300	15.107	0.101
189.400	-0.228	0.101
189.500	-3.854	0.101
189.600	-10.678	0.101
189.700	-3.876	0.101
189.800	-0.459	0.101
189.900	8.249	0.101
190.000	-8.224	0.101
190.100	-0.710	0.101
190.200	-1.500	0.101
190.300	12.155	0.101
190.400	2.698	0.101
190.500	-11.156	0.101
190.600	1.770	0.101
190.700	13.553	0.101
190.800	6.085	0.101
190.900	2.364	0.101
191.000	-1.758	0.101
191.100	-0.961	0.101
191.200	3.704	0.101
191.300	-0.177	0.101
191.400	-0.644	0.101
191.500	0.888	0.101
191.600	-1.415	0.101
191.700	4.118	0.101
191.800	0.443	0.101
191.900	-7.906	0.101
192.000	-10.820	0.101
192.100	4.678	0.101
192.200	-5.303	0.101
192.300	2.922	0.101
192.400	3.405	0.101
192.500	6.357	0.101
192.600	0.616	0.101
192.700	-0.784	0.101
192.800	2.106	0.101
192.900	2.171	0.101
193.000	0.530	0.101
193.100	-1.365	0.101
193.200	4.600	0.101
193.300	2.132	0.101
193.400	3.875	0.101
193.500	10.666	0.101
193.600	-3.779	0.101
193.700	-4.525	0.101
193.800	13.145	0.101
193.900	10.249	0.101
194.000	4.039	0.101
194.100	-3.934	0.101
194.200	-2.203	0.101
194.300	4.207	0.101
194.400	1.705	0.101
194.500	0.639	0.101
194.600	4.577	0.101
194.700	-3.508	0.101
194.800	3.613	0.101
194.900	6.098	0.101
195.000	3.963	0.101
195.100	-2.667	0.101
195.200	5.299	0.101
195.300	18.798	0.101
195.400	0.966	0.101
195.500	2.719	0.101
195.600	0.390	0.101
195.700	5.727	0.101
195.800	2.495	0.101
195.900	8.633	0.101
196.000	0.003	0.101
196.100	15.062	0.101
196.200	-0.655	0.101
196.300	-3.447	0.101
196.400	7.221	0.101
196.500	1.854	0.101
196.600	6.341	0.101
196.700	-1.377	0.101
196.800	7.261	0.101
196.900	15.910	0.101
197.000	6.271	0.101
197.100	-4.017	0.101
197.200	2.659	0.101
197.300	8.457	0.101
197.400	-2.119	0.101
197.500	1.807	0.101
197.600	-1.562	0.101
197.700	-0.763	0.101
197.800	5.821	0.101
197.900	-0.054	0.101
198.000	0.681	0.101
198.100	-2.714	0.101
198.200	12.191	0.101
198.300	11.062	0.101
198.400	4.358	0.101
198.500	5.260	0.101
198.600	9.699	0.101
198.700	3.258	0.101
198.800	3.723	0.101
198.900	-1.730	0.101
199.000	5.733	0.101
199.100	7.054	0.101
199.200	-3.468	0.101
199.300	10.229	0.101
199.400	-3.228	0.101
199.500	-2.099	0.101
199.600	8.702	0.101
199.700	8.730	0.101
199.800	6.329	0.101
199.900	-5.471	0.101
200.000	10.055	0.101
200.100	-3.159	0.101
200.200	1.579	0.101
200.300	7.400	0.101
200.400	6.180	0.101
200.500	5.030	0.101
200.600	-2.896	0.101
200.700	-3.763	0.101
200.800	14.878	0.101
200.900	7.999	0.101
201.000	3.614	0.101
201.100	11.090	0.101
201.200	-0.550	0.101
201.300	2.008	0.101
201.400	7.715	0.101
201.500	3.920	0.101
201.600	6.304	0.101
201.700	4.213	0.101
201.800	4.137	0.101
201.900	15.753	0.101
202.000	-5.025	0.101
202.100	2.565	0.101
202.200	-6.175	0.101
202.300	3.033	0.101
202.400	19.262	0.101
202.500	2.580	0.101
202.600	16.244	0.101
202.700	5.258	0.101
202.800	5.101	0.101
202.900	5.610	0.101
203.000	5.347	0.101
203.100	1.414	0.101
203.200	5.086	0.101
203.300	-2.413	0.101
203.400	2.738	0.101
203.500	6.915	0.101
203.600	6.930	0.101
203.700	3.885	0.101
203.800	10.767	0.101
203.900	1.884	0.101
204.000	12.519	0.101
204.100	7.312	0.101
204.200	-5.619	0.101
204.300	1.401	0.101
204.400	-3.027	0.101
204.500	6.339	0.101
204.600	3.430	0.101
204.700	10.349	0.101
204.800	-2.829	0.101
204.900	2.698	0.101
205.000	-0.676	0.101
205.100	4.110	0.101
205.200	10.392	0.101
205.300	3.273	0.101
205.400	11.452	0.101
205.500	9.958	0.101
205.600	6.305	0.101
205.700	3.509	0.101
205.800	4.883	0.101
205.900	-5.594	0.101
206.000	7.229	0.101
206.100	1.089	0.101
206.200	13.461	0.101
206.300	-1.987	0.101
206.400	9.028	0.101
206.500	-0.013	0.101
206.600	0.672	0.101
206.700	6.062	0.101
206.800	3.528	0.101
206.900	1.762	0.101
207.000	-3.124	0.101
207.100	2.779	0.101
207.200	1.721	0.101
207.300	0.412	0.101
207.400	8.792	0.101
207.500	15.011	0.101
207.600	8.629	0.101
207.700	4.870	0.100
207.800	-1.970	0.101
207.900	3.008	0.101
208.000	2.337	0.101
208.100	3.919	0.100
208.200	13.645	0.101
208.300	0.069	0.100
208.400	5.348	0.100
208.500	9.082	0.100
208.600	4.243	0.100
208.700	-0.008	0.100
208.800	7.299	0.100
208.900	3.713	0.100
209.000	3.860	0.100
209.100	-0.736	0.100
209.200	16.133	0.100
209.300	-2.112	0.100
209.400	2.045	0.100
209.500	5.880	0.100
209.600	1.001	0.100
209.700	-4.622	0.100
209.800	4.854	0.100
209.900	10.137	0.100
210.000	2.673	0.100
210.100	11.364	0.100
210.200	5.435	0.100
210.300	4.124	0.100
210.400	7.531	0.100
210.500	-3.807	0.100
210.600	6.058	0.100
210.700	2.891	0.100
210.800	10.573	0.100
210.900	5.749	0.100
211.000	8.768	0.100
211.100	-5.948	0.100
211.200	10.447	0.100
211.300	3.131	0.100
211.400	2.441	0.100
211.500	8.791	0.100
211.600	4.754	0.100
211.700	1.915	0.100
211.800	2.667	0.100
211.900	4.052	0.100
212.000	5.518	0.100
212.100	3.183	0.100
212.200	11.660	0.100
212.300	2.017	0.100
212.400	5.900	0.100
212.500	14.843	0.100
212.600	7.095	0.100
212.700	1.493	0.100
212.800	6.654	0.100
212.900	0.792	0.100
213.000	2.430	0.100
213.100	1.403	0.100
213.200	7.723	0.100
213.300	9.442	0.100
213.400	2.922	0.100
213.500	-5.112	0.100
213.600	4.498	0.100
213.700	-1.282	0.100
213.800	5.887	0.100
213.900	7.488	0.100
214.000	1.956	0.100
214.100	7.476	0.100
214.200	-0.835	0.100
214.300	3.360	0.100
214.400	0.592	0.100
214.500	10.020	0.100
214.600	-1.894	0.100
214.700	5.778	0.100
214.800	1.446	0.100
214.900	-2.503	0.100
215.000	9.311	0.100
215.100	3.338	0.100
215.200	2.797	0.100
215.300	3.122	0.100
215.400	5.010	0.100
215.500	5.036	0.100
215.600	11.152	0.100
215.700	5.931	0.100
215.800	4.202	0.100
215.900	-2.855	0.100
216.000	-6.251	0.100
216.100	4.764	0.100
216.200	11.520	0.100
216.300	9.445	0.100
216.400	12.918	0.100
216.500	7.983	0.100
216.600	1.387	0.100
216.700	9.140	0.100
216.800	14.328	0.100
216.900	-2.402	0.100
217.000	-7.737	0.100
217.100	15.481	0.100
217.200	7.027	0.100
217.300	14.528	0.100
217.400	6.786	0.100
217.500	7.129	0.100
217.600	12.977	0.100
217.700	6.641	0.100
217.800	11.845	0.100
217.900	13.403	0.100
218.000	8.962	0.100
218.100	1.469	0.100
218.200	8.846	0.100
218.300	2.023	0.100
218.400	4.783	0.100
218.500	17.632	0.100
218.600	-0.678	0.100
218.700	10.219	0.100
218.800	9.591	0.100
218.900	17.714	0.100
219.000	9.763	0.100
219.100	-2.625	0.100
219.200	-5.328	0.100
219.300	4.104	0.100
219.400	-0.201	0.100
219.500	1.894	0.100
219.600	17.395	0.100
219.700	1.464	0.100
219.800	-2.050	0.100
219.900	2.490	0.100
220.000	5.075	0.100
220.100	0.686	0.100
220.200	10.052	0.100
220.300	-5.244	0.100
220.400	13.767	0.100
220.500	7.593	0.100
220.600	6.742	0.100
220.700	0.594	0.100
220.800	1.394	0.100
220.900	8.343	0.100
221.000	6.472	0.100
221.100	8.869	0.100
221.200	6.429	0.100
221.300	-6.282	0.100
221.400	9.202	0.100
221.500	15.066	0.100
221.600	9.983	0.100
221.700	8.050	0.100
221.800	5.304	0.100
221.900	7.584	0.100
222.000	9.617	0.100
222.100	4.749	0.100
222.200	5.731	0.100
222.300	8.446	0.100
222.400	3.191	0.100
222.500	5.596	0.100
222.600	2.097	0.100
222.700	3.629	0.100
222.800	9.866	0.100
222.900	8.412	0.100
223.000	2.714	0.100
223.100	7.405	0.100
223.200	-8.738	0.100
223.300	3.161	0.100
223.400	8.312	0.100
223.500	9.623	0.100
223.600	0.637	0.100
223.700	4.658	0.100
223.800	11.010	0.100
223.900	7.477	0.100
224.000	6.952	0.100
224.100	8.449	0.100
224.200	2.581	0.100
224.300	8.913	0.100
224.400	1.817	0.100
224.500	10.032	0.100
224.600	11.047	0.100
224.700	14.715	0.100
224.800	16.345	0.100
224.900	4.941	0.100
225.000	5.973	0.100
225.100	-2.120	0.100
225.200	-3.279	0.100
225.300	6.664	0.100
225.400	6.729	0.100
225.500	4.159	0.100
225.600	5.907	0.100
225.700	1.549	0.100
225.800	4.547	0.100
225.900	3.835	0.100
226.000	2.979	0.100
226.100	9.694	0.100
226.200	8.546	0.100
226.300	5.648	0.100
226.400	8.458	0.100
226.500	11.026	0.100
226.600	3.825	0.100
226.700	6.382	0.100
226.800	5.946	0.100
226.900	-5.151	0.100
227.000	2.141	0.100
227.100	6.916	0.100
227.200	-8.348	0.100
227.300	4.262	0.100
227.400	11.242	0.100
227.500	18.381	0.100
227.600	5.578	0.100
227.700	12.115	0.100
227.800	6.653	0.100
227.900	2.939	0.100
228.000	-0.530	0.100
228.100	5.872	0.100
228.200	2.506	0.100
228.300	10.273	0.100
228.400	17.796	0.100
228.500	3.763	0.100
228.600	1.298	0.100
228.700	-4.356	0.100
228.800	5.127	0.100
228.900	8.223	0.100
229.000	9.630	0.100
229.100	-3.514	0.100
229.200	4.836	0.100
229.300	15.664	0.100
229.400	6.475	0.100
229.500	9.478	0.100
229.600	6.085	0.100
229.700	10.390	0.100
229.800	-0.451	0.100
229.900	1.681	0.100
230.000	0.908	0.100
230.100	10.018	0.100
230.200	5.245	0.100
230.300	-0.163	0.100
230.400	12.458	0.100
230.500	13.741	0.100
230.600	13.155	0.100
230.700	-2.299	0.100
230.800	0.551	0.100
230.900	8.890	0.100
231.000	1.804	0.100
231.100	10.303	0.100
231.200	9.567	0.100
231.300	2.027	0.100
231.400	9.062	0.100
231.500	8.391	0.100
231.600	9.659	0.100
231.700	8.383	0.100
231.800	7.261	0.100
231.900	11.576	0.100
232.000	9.328	0.100
232.100	10.755	0.100
232.200	8.669	0.100
232.300	1.672	0.100
232.400	2.415	0.100
232.500	3.236	0.100
232.600	5.358	0.100
232.700	7.956	0.100
232.800	6.423	0.100
232.900	2.716	0.100
233.000	8.391	0.100
233.100	6.457	0.100
233.200	11.293	0.100
233.300	6.236	0.100
233.400	2.294	0.100
233.500	10.167	0.100
233.600	2.731	0.100
233.700	15.021	0.100
233.800	-0.921	0.100
233.900	9.578	0.100
234.000	6.131	0.100
234.100	17.002	0.100
234.200	3.113	0.100
234.300	7.432	0.100
234.400	15.950	0.100
234.500	1.999	0.100
234.600	4.294	0.100
234.700	-5.529	0.100
234.800	2.425	0.100
234.900	8.385	0.100
235.000	11.611	0.100
235.100	14.515	0.100
235.200	-3.443	0.100
235.300	12.607	0.100
235.400	11.533	0.100
235.500	13.108	0.100
235.600	2.547	0.100
235.700	5.142	0.100
235.800	15.356	0.100
235.900	14.734	0.100
236.000	-1.495	0.100
236.100	9.834	0.100
236.200	-4.858	0.100
236.300	3.053	0.100
236.400	2.545	0.100
236.500	12.692	0.100
236.600	1.159	0.100
236.700	6.676	0.100
236.800	10.596	0.100
236.900	2.075	0.100
237.000	-1.381	0.100
237.100	9.258	0.100
237.200	7.551	0.100
237.300	9.658	0.100
237.400	12.788	0.100
237.500	9.532	0.100
237.600	6.449	0.100
237.700	16.505	0.100
237.800	12.619	0.100
237.900	8.104	0.100
238.000	0.017	0.100
238.100	3.952	0.100
238.200	-6.367	0.100
238.300	5.484	0.100
238.400	7.236	0.100
238.500	4.991	0.100
238.600	10.711	0.100
238.700	4.184	0.100
238.800	6.349	0.100
238.900	1.138	0.100
239.000	6.919	0.100
239.100	12.671	0.100
239.200	-1.869	0.100
239.300	-3.298	0.100
239.400	7.694	0.100
239.500	-0.703	0.100
239.600	2.893	0.100
239.700	7.392	0.100
239.800	3.265	0.100
239.900	4.635	0.100
240.000	12.731	0.100
240.100	-2.943	0.100
240.200	11.072	0.100
240.300	5.470	0.100
240.400	13.580	0.100
240.500	5.746	0.100
240.600	2.314	0.100
240.700	-1.389	0.100
240.800	7.830	0.100
240.900	9.631	0.100
241.000	13.064	0.100
241.100	13.119	0.100
241.200	11.005	0.100
241.300	7.646	0.100
241.400	2.682	0.100
241.500	6.531	0.100
241.600	6.574	0.100
241.700	0.902	0.100
241.800	10.020	0.100
241.900	-0.009	0.100
242.000	0.305	0.100
242.100	0.874	0.100
242.200	13.537	0.100
242.300	-3.517	0.100
242.400	1.037	0.100
242.500	6.166	0.100
242.600	-0.892	0.100
242.700	14.833	0.100
242.800	3.046	0.100
242.900	7.332	0.100
243.000	10.052	0.100
243.100	5.272	0.100
243.200	3.407	0.100
243.300	11.002	0.100
243.400	10.655	0.100
243.500	9.998	0.100
243.600	-0.717	0.100
243.700	12.158	0.100
243.800	7.103	0.100
243.900	1.167	0.100
244.000	13.085	0.100
244.100	13.865	0.100
244.200	12.077	0.100
244.300	9.722	0.100
244.400	3.332	0.100
244.500	8.783	0.100
244.600	8.979	0.100
244.700	12.371	0.100
244.800	4.205	0.100
244.900	1.741	0.100
245.000	4.732	0.100
245.100	3.705	0.100
245.200	13.929	0.100
245.300	5.557	0.100
245.400	10.609	0.100
245.500	-5.152	0.100
245.600	15.296	0.100
245.700	-0.519	0.100
245.800	6.469	0.100
245.900	12.752	0.100
246.000	4.903	0.100
246.100	0.688	0.100
246.200	7.586	0.100
246.300	7.391	0.100
246.400	15.137	0.100
246.500	9.454	0.100
246.600	2.181	0.100
246.700	1.439	0.100
246.800	4.360	0.100
246.900	5.372	0.100
247.000	2.230	0.100
247.100	2.701	0.100
247.200	2.364	0.100
247.300	6.231	0.100
247.400	-3.771	0.100
247.500	5.710	0.100
247.600	5.865	0.100
247.700	6.425	0.100
247.800	8.840	0.100
247.900	1.296	0.100
248.000	6.632	0.100
248.100	-6.827	0.100
248.200	8.156	0.100
248.300	14.676	0.100
248.400	8.661	0.100
248.500	1.822	0.100
248.600	-2.827	0.100
248.700	7.645	0.100
248.800	5.442	0.100
248.900	1.040	0.100
249.000	9.104	0.100
249.100	-0.281	0.100
249.200	-0.165	0.100
249.300	-0.919	0.100
249.400	3.033	0.100
249.500	-2.648	0.100
249.600	0.342	0.100
249.700	6.701	0.100
249.800	11.439	0.100
249.900	-4.200	0.100
250.000	14.559	0.100
250.100	-2.968	0.100
250.200	4.338	0.100
250.300	-0.086	0.100
250.400	7.764	0.100
250.500	4.087	0.100
250.600	1.726	0.100
250.700	5.484	0.100
250.800	6.868	0.100
250.900	-2.580	0.100
251.000	6.569	0.100
251.100	4.520	0.100
251.200	2.238	0.100
251.300	11.837	0.100
251.400	2.073	0.100
251.500	8.418	0.100
251.600	0.213	0.100
251.700	1.944	0.100
251.800	4.008	0.100
251.900	1.025	0.100
252.000	1.651	0.100
252.100	0.736	0.100
252.200	13.592	0.100
252.300	4.563	0.100
252.400	-4.567	0.100
252.500	9.721	0.100
252.600	-3.907	0.100
252.700	8.456	0.100
252.800	4.806	0.100
252.900	2.975	0.100
253.000	5.435	0.100
253.100	3.585	0.100
253.200	3.233	0.100
253.300	-0.932	0.100
253.400	-1.884	0.100
253.500	6.852	0.100
253.600	4.585	0.100
253.700	-1.293	0.100
253.800	-4.168	0.100
253.900	-1.882	0.100
254.000	11.773	0.100
254.100	9.080	0.100
254.200	3.352	0.100
254.300	0.553	0.100
254.400	-4.226	0.100
254.500	3.440	0.100
254.600	1.857	0.100
254.700	3.911	0.100
254.800	2.058	0.100
254.900	3.457	0.100
255.000	11.231	0.100
255.100	-0.206	0.100
255.200	6.470	0.100
255.300	-4.010	0.100
255.400	6.982	0.100
255.500	2.188	0.100
255.600	-3.981	0.100
255.700	11.057	0.100
255.800	-0.212	0.100
255.900	9.158	0.100
256.000	-2.212	0.100
256.100	1.684	0.100
256.200	6.590	0.100
256.300	12.375	0.100
256.400	8.462	0.100
256.500	-0.861	0.100
256.600	-2.809	0.100
256.700	-3.595	0.100
256.800	4.052	0.100
256.900	-9.600	0.100
257.000	1.173	0.100
257.100	2.163	0.100
257.200	1.672	0.100
257.300	11.871	0.100
257.400	3.013	0.100
257.500	-0.421	0.100
257.600	5.306	0.100
257.700	0.969	0.100
257.800	6.438	0.100
257.900	-11.168	0.100
258.000	2.741	0.100
258.100	1.886	0.100
258.200	7.229	0.100
258.300	10.769	0.100
258.400	-0.303	0.100
258.500	1.801	0.100
258.600	-3.815	0.100
258.700	-8.142	0.100
258.800	2.599	0.100
258.900	-7.145	0.100
259.000	9.216	0.100
259.100	7.346	0.100
259.200	5.264	0.100
259.300	5.161	0.100
259.400	-1.900	0.100
259.500	2.428	0.100
259.600	-8.815	0.100
259.700	7.156	0.100
259.800	3.724	0.100
259.900	3.944	0.100
260.000	3.846	0.100
260.100	3.940	0.100
260.200	6.884	0.100
260.300	6.411	0.100
260.400	8.831	0.100
260.500	0.804	0.100
260.600	-10.315	0.100
260.700	5.307	0.100
260.800	3.400	0.100
260.900	2.638	0.100
261.000	6.942	0.100
261.100	4.512	0.100
261.200	-2.533	0.100
261.300	4.036	0.100
261.400	0.048	0.100
261.500	5.529	0.100
261.600	1.265	0.100
261.700	9.060	0.100
261.800	1.229	0.100
261.900	-0.823	0.100
262.000	-1.300	0.100
262.100	4.821	0.100
262.200	4.155	0.100
262.300	1.906	0.100
262.400	-5.485	0.100
262.500	4.663	0.100
262.600	-4.730	0.100
262.700	-6.195	0.100
262.800	3.873	0.100
262.900	2.720	0.100
263.000	-2.764	0.100
263.100	-3.066	0.100
263.200	-0.732	0.100
263.300	2.284	0.100
263.400	1.877	0.100
263.500	0.576	0.100
263.600	8.944	0.100
263.700	4.016	0.100
263.800	0.482	0.100
263.900	2.871	0.100
264.000	5.172	0.100
264.100	-1.909	0.100
264.200	2.406	0.100
264.300	3.125	0.100
264.400	3.469	0.100
264.500	-9.047	0.100
264.600	12.693	0.100
264.700	-2.570	0.100
264.800	-0.628	0.100
264.900	10.915	0.100
265.000	6.587	0.100
265.100	3.703	0.100
265.200	2.712	0.100
265.300	-0.716	0.100
265.400	-5.627	0.100
265.500	4.995	0.100
265.600	9.228	0.100
265.700	0.600	0.100
265.800	0.578	0.100
265.900	-0.952	0.100
266.000	-7.408	0.100
266.100	2.873	0.100
266.200	-2.907	0.100
266.300	2.596	0.100
266.400	0.121	0.100
266.500	2.174	0.100
266.600	-8.864	0.100
266.700	-3.013	0.100
266.800	-4.220	0.100
266.900	-0.024	0.100
267.000	5.498	0.100
267.100	-1.627	0.100
267.200	1.183	0.100
267.300	-4.608	0.100
267.400	5.212	0.100
267.500	-1.004	0.100
267.600	7.096	0.100
267.700	2.466	0.100
267.800	-5.590	0.100
267.900	3.078	0.100
268.000	-5.794	0.100
268.100	6.286	0.100
268.200	10.622	0.100
268.300	7.973	0.100
268.400	-7.102	0.100
268.500	1.418	0.100
268.600	2.523	0.100
268.700	17.023	0.100
268.800	-3.153	0.100
268.900	0.460	0.100
269.000	4.077	0.100
269.100	-5.497	0.100
269.200	-3.462	0.100
269.300	-5.276	0.100
269.400	-0.440	0.100
269.500	-4.055	0.100
269.600	-1.445	0.100
269.700	2.180	0.100
269.800	-2.003	0.100
269.900	8.030	0.100
270.000	-0.096	0.100
270.100	-5.302	0.100
270.200	-4.223	0.100
270.300	2.647	0.100
270.400	-7.370	0.100
270.500	4.862	0.100
270.600	2.559	0.100
270.700	3.193	0.100
270.800	2.456	0.100
270.900	-8.458	0.100
271.000	-1.218	0.100
271.100	9.574	0.100
271.200	1.429	0.100
271.300	0.426	0.100
271.400	-2.805	0.100
271.500	7.668	0.100
271.600	4.834	0.100
271.700	-0.930	0.100
271.800	6.577	0.100
271.900	12.196	0.100
272.000	3.295	0.100
272.100	5.513	0.100
272.200	18.152	0.100
272.300	0.163	0.100
272.400	-1.535	0.100
272.500	-2.000	0.100
272.600	2.927	0.100
272.700	-2.409	0.100
272.800	-4.066	0.100
272.900	10.312	0.100
273.000	-1.416	0.100
273.100	0.760	0.100
273.200	7.180	0.100
273.300	-7.850	0.100
273.400	-3.479	0.100
273.500	10.869	0.100
273.600	-5.966	0.100
273.700	-1.085	0.100
273.800	0.261	0.100
273.900	5.351	0.100
274.000	-0.365	0.100
274.100	-0.161	0.100
274.200	0.604	0.100
274.300	2.493	0.100
274.400	-0.882	0.100
274.500	8.267	0.100
274.600	1.803	0.100
274.700	-4.573	0.100
274.800	0.936	0.100
274.900	2.070	0.100
275.000	-4.883	0.100
275.100	6.278	0.100
275.200	1.041	0.100
275.300	7.381	0.100
275.400	1.949	0.100
275.500	-0.653	0.100
275.600	-2.045	0.100
275.700	-2.966	0.100
275.800	10.531	0.100
275.900	-6.276	0.100
276.000	-9.737	0.100
276.100	8.015	0.100
276.200	4.104	0.100
276.300	-4.886	0.100
276.400	-3.063	0.100
276.500	10.549	0.100
276.600	9.447	0.100
276.700	8.544	0.100
276.800	3.617	0.100
276.900	7.465	0.100
277.000	-10.263	0.100
277.100	6.533	0.100
277.200	-0.386	0.100
277.300	7.040	0.100
277.400	-1.322	0.100
277.500	-3.792	0.100
277.600	-6.519	0.100
277.700	5.129	0.100
277.800	-3.519	0.100
277.900	1.718	0.100
278.000	12.318	0.100
278.100	2.577	0.100
278.200	2.533	0.100
278.300	-2.156	0.100
278.400	-2.761	0.100
278.500	8.658	0.100
278.600	6.880	0.100
278.700	3.691	0.100
278.800	5.443	0.100
278.900	4.458	0.100
279.000	3.056	0.100
279.100	-3.155	0.100
279.200	2.086	0.100
279.300	4.870	0.100
279.400	5.861	0.100
279.500	-2.887	0.100
279.600	5.304	0.100
279.700	-5.655	0.100
279.800	1.615	0.100
279.900	4.023	0.100
280.000	5.754	0.100
280.100	4.570	0.100
280.200	0.104	0.100
280.300	5.382	0.100
280.400	1.710	0.100
280.500	-3.737	0.100
280.600	0.147	0.100
280.700	5.985	0.100
280.800	9.258	0.100
280.900	-5.957	0.100
281.000	7.933	0.100
281.100	1.257	0.100
281.200	8.549	0.100
281.300	-2.937	0.100
281.400	-3.923	0.100
281.500	-1.721	0.100
281.600	0.280	0.100
281.700	1.887	0.100
281.800	-4.124	0.100
281.900	1.187	0.100
282.000	3.171	0.100
282.100	7.751	0.100
282.200	0.290	0.100
282.300	-4.804	0.100
282.400	7.627	0.100
282.500	-1.116	0.100
282.600	9.384	0.100
282.700	7.823	0.100
282.800	-4.723	0.100
282.900	3.492	0.100
283.000	4.884	0.100
283.100	1.785	0.100
283.200	0.563	0.100
283.300	-6.075	0.100
283.400	1.245	0.100
283.500	-7.856	0.100
283.600	-1.136	0.100
283.700	7.554	0.100
283.800	5.557	0.100
283.900	-3.810	0.100
284.000	6.036	0.100
284.100	2.857	0.100
284.200	-1.625	0.100
284.300	1.906	0.100
284.400	-0.898	0.100
284.500	0.768	0.100
284.600	-1.934	0.100
284.700	1.783	0.100
284.800	-3.009	0.100
284.900	-6.751	0.100
285.000	3.848	0.100
285.100	10.551	0.100
285.200	-2.308	0.100
285.300	2.558	0.100
285.400	0.764	0.100
285.500	-4.550	0.100
285.600	11.453	0.100
285.700	6.051	0.100
285.800	5.245	0.100
285.900	-4.788	0.100
286.000	3.456	0.100
286.100	6.418	0.100
286.200	4.190	0.100
286.300	6.305	0.100
286.400	0.575	0.100
286.500	5.937	0.100
286.600	-7.713	0.100
286.700	5.987	0.100
286.800	-2.024	0.100
286.900	3.732	0.100
287.000	-0.850	0.100
287.100	5.543	0.100
287.200	6.351	0.100
287.300	-3.897	0.100
287.400	0.415	0.100
287.500	0.566	0.100
287.600	0.714	0.100
287.700	-1.773	0.100
287.800	-1.944	0.100
287.900	0.454	0.100
288.000	0.987	0.100
288.100	-6.933	0.100
288.200	-2.440	0.100
288.300	4.946	0.100
288.400	1.866	0.100
288.500	1.455	0.100
288.600	5.987	0.100
288.700	10.344	0.100
288.800	-4.770	0.100
288.900	-3.222	0.100
289.000	7.878	0.100
289.100	-5.376	0.100
289.200	0.398	0.100
289.300	-5.263	0.100
289.400	-2.185	0.100
289.500	-1.971	0.100
289.600	5.156	0.100
289.700	7.398	0.100
289.800	10.599	0.100
289.900	7.144	0.100
290.000	0.168	0.100
290.100	9.560	0.100
290.200	-10.166	0.100
290.300	-5.483	0.100
290.400	3.309	0.100
290.500	-1.142	0.100
290.600	3.377	0.100
290.700	-4.774	0.100
290.800	2.001	0.100
290.900	3.563	0.100
291.000	1.207	0.100
291.100	7.394	0.100
291.200	-0.448	0.100
291.300	-2.106	0.100
291.400	10.347	0.100
291.500	-2.289	0.100
291.600	-2.207	0.100
291.700	9.825	0.100
291.800	-0.809	0.100
291.900	12.942	0.100
292.000	1.072	0.100
292.100	-10.221	0.100
292.200	-6.684	0.100
292.300	6.625	0.100
292.400	8.884	0.100
292.500	9.221	0.100
292.600	-3.087	0.100
292.700	-4.083	0.100
292.800	-4.942	0.100
292.900	-1.331	0.100
293.000	10.618	0.100
293.100	6.473	0.100
293.200	-2.975	0.100
293.300	4.249	0.100
293.400	-4.777	0.100
293.500	7.413	0.100
293.600	7.750	0.100
293.700	-4.169	0.100
293.800	-4.314	0.100
293.900	-1.442	0.100
294.000	-0.260	0.100
294.100	-3.647	0.100
294.200	1.133	0.100
294.300	0.534	0.100
294.400	7.149	0.100
294.500	0.504	0.100
294.600	0.013	0.100
294.700	-5.425	0.100
294.800	-5.273	0.100
294.900	10.599	0.100
295.000	5.044	0.100
295.100	2.915	0.100
295.200	5.508	0.100
295.300	1.100	0.100
295.400	-3.761	0.100
295.500	5.152	0.100
295.600	5.022	0.100
295.700	3.258	0.100
295.800	7.818	0.100
295.900	0.824	0.100
296.000	-0.906	0.100
296.100	-1.401	0.100
296.200	-1.284	0.100
296.300	-6.811	0.100
296.400	5.399	0.100
296.500	-8.243	0.100
296.600	5.327	0.100
296.700	14.957	0.100
296.800	1.999	0.100
296.900	0.924	0.100
297.000	5.644	0.100
297.100	2.633	0.100
297.200	4.101	0.100
297.300	-0.502	0.100
297.400	9.384	0.100
297.500	2.371	0.100
297.600	-2.579	0.100
297.700	-1.901	0.100
297.800	0.499	0.100
297.900	-1.355	0.100
298.000	-7.283	0.100
298.100	-0.809	0.100
298.200	5.899	0.100
298.300	7.000	0.100
298.400	-11.586	0.100
298.500	5.738	0.100
298.600	9.692	0.100
298.700	5.708	0.100
298.800	-2.110	0.100
298.900	-2.130	0.100
299.000	2.697	0.100
299.100	3.459	0.100
299.200	-4.507	0.100
299.300	-0.942	0.100
299.400	5.026	0.100
299.500	-1.097	0.100
299.600	0.779	0.100
299.700	5.478	0.100
299.800	4.854	0.100
299.900	2.192	0.100
300.000	11.534	0.100
300.100	10.782	0.100
300.200	-1.338	0.100
300.300	5.757	0.100
300.400	0.419	0.100
300.500	-3.440	0.100
300.600	-6.747	0.100
300.700	15.833	0.100
300.800	6.583	0.100
300.900	-8.341	0.100
301.000	-2.418	0.100
301.100	1.564	0.100
301.200	7.194	0.100
301.300	7.719	0.100
301.400	-9.112	0.100
301.500	-0.157	0.100
301.600	5.981	0.100
301.700	-5.558	0.100
301.800	6.294	0.100
301.900	-5.351	0.100
302.000	2.302	0.100
302.100	3.714	0.100
302.200	3.265	0.100
302.300	2.738	0.100
302.400	-1.782	0.100
302.500	2.375	0.100
302.600	-4.974	0.100
302.700	3.711	0.100
302.800	1.075	0.100
302.900	7.155	0.100
303.000	2.453	0.100
303.100	7.897	0.100
303.200	4.497	0.100
303.300	-6.666	0.100
303.400	-4.103	0.100
303.500	5.827	0.100
303.600	8.917	0.100
303.700	4.336	0.100
303.800	3.183	0.100
303.900	3.556	0.100
304.000	11.470	0.100
304.100	3.864	0.100
304.200	5.566	0.100
304.300	5.254	0.100
304.400	4.964	0.100
304.500	12.286	0.100
304.600	11.121	0.100
304.700	11.710	0.100
304.800	0.100	0.100
304.900	-2.902	0.100
305.000	0.459	0.100
305.100	-0.186	0.100
305.200	5.013	0.100
305.300	6.140	0.100
305.400	-0.845	0.100
305.500	1.146	0.100
305.600	-3.744	0.100
305.700	-1.426	0.100
305.800	-6.443	0.100
305.900	-7.148	0.100
306.000	4.932	0.100
306.100	3.878	0.100
306.200	13.291	0.100
306.300	-1.030	0.100
306.400	3.980	0.100
306.500	2.563	0.100
306.600	-0.798	0.100
306.700	10.582	0.100
306.800	3.676	0.100
306.900	-1.450	0.100
307.000	-0.939	0.100
307.100	-6.400	0.100
307.200	6.740	0.100
307.300	2.968	0.100
307.400	3.047	0.100
307.500	-1.892	0.100
307.600	-7.530	0.100
307.700	6.581	0.100
307.800	2.074	0.100
307.900	8.987	0.100
308.000	0.628	0.100
308.100	10.052	0.100
308.200	-1.533	0.100
308.300	0.719	0.100
308.400	3.689	0.100
308.500	5.074	0.100
308.600	-0.029	0.100
308.700	1.668	0.100
308.800	-5.863	0.100
308.900	1.107	0.100
309.000	0.409	0.100
309.100	8.040	0.100
309.200	6.529	0.100
309.300	7.026	0.100
309.400	-9.051	0.100
309.500	6.491	0.100
309.600	-2.827	0.100
309.700	8.554	0.100
309.800	-1.068	0.100
309.900	1.196	0.100
310.000	0.256	0.100
310.100	-0.416	0.100
310.200	-5.740	0.100
310.300	8.375	0.100
310.400	0.011	0.100
310.500	12.659	0.100
310.600	-3.878	0.100
310.700	9.780	0.100
310.800	4.857	0.100
310.900	11.203	0.100
311.000	-6.053	0.100
311.100	-6.976	0.100
311.200	9.165	0.100
311.300	0.694	0.100
311.400	1.254	0.100
311.500	1.790	0.100
311.600	0.978	0.100
311.700	9.944	0.100
311.800	3.406	0.100
311.900	-2.547	0.100
312.000	-1.022	0.100
312.100	6.044	0.100
312.200	-1.366	0.100
312.300	20.245	0.100
312.400	-0.492	0.100
312.500	-2.526	0.100
312.600	-1.624	0.100
312.700	5.825	0.100
312.800	11.412	0.100
312.900	6.923	0.100
313.000	1.893	0.100
313.100	0.393	0.100
313.200	7.042	0.100
313.300	-3.718	0.100
313.400	2.525	0.100
313.500	3.934	0.100
313.600	1.847	0.100
313.700	-1.520	0.100
313.800	-2.190	0.100
313.900	10.496	0.100
314.000	-2.024	0.100
314.100	-2.642	0.100
314.200	-5.509	0.100
314.300	-5.182	0.100
314.400	4.606	0.100
314.500	13.060	0.100
314.600	5.572	0.100
314.700	-6.058	0.100
314.800	9.264	0.100
314.900	8.277	0.100
315.000	9.050	0.100
315.100	1.177	0.100
315.200	2.894	0.100
315.300	0.464	0.100
315.400	-4.855	0.100
315.500	6.933	0.100
315.600	8.315	0.100
315.700	-1.129	0.100
315.800	-4.761	0.100
315.900	-2.725	0.100
316.000	4.414	0.100
316.100	6.920	0.100
316.200	5.203	0.100
316.300	-0.617	0.100
316.400	-3.081	0.100
316.500	-4.273	0.100
316.600	-0.059	0.100
316.700	7.686	0.100
316.800	-4.393	0.100
316.900	11.371	0.100
317.000	6.405	0.100
317.100	5.733	0.100
317.200	0.316	0.100
317.300	4.063	0.100
317.400	0.692	0.100
317.500	1.623	0.100
317.600	1.097	0.100
317.700	11.442	0.100
317.800	9.784	0.100
317.900	-2.361	0.100
318.000	-6.489	0.100
318.100	-9.611	0.100
318.200	9.490	0.100
318.300	18.186	0.100
318.400	7.634	0.100
318.500	3.049	0.100
318.600	9.119	0.100
318.700	2.795	0.100
318.800	6.051	0.100
318.900	-1.812	0.100
319.000	-2.090	0.100
319.100	14.789	0.100
319.200	5.490	0.100
319.300	0.924	0.100
319.400	3.599	0.100
319.500	-1.688	0.100
319.600	1.992	0.100
319.700	11.594	0.100
319.800	-1.058	0.100
319.900	7.163	0.100
320.000	-3.972	0.100
320.100	-0.811	0.100
320.200	-8.369	0.100
320.300	9.029	0.100
320.400	-5.363	0.100
320.500	2.417	0.100
320.600	-0.441	0.100
320.700	-0.984	0.100
320.800	0.366	0.100
320.900	8.306	0.100
321.000	0.016	0.100
321.100	3.147	0.100
321.200	2.817	0.100
321.300	-5.979	0.100
321.400	2.396	0.100
321.500	6.194	0.100
321.600	7.845	0.100
321.700	5.975	0.100
321.800	9.270	0.100
321.900	-2.125	0.100
322.000	0.045	0.100
322.100	1.731	0.100
322.200	3.197	0.100
322.300	-2.966	0.100
322.400	6.460	0.100
322.500	5.338	0.100
322.600	-0.860	0.100
322.700	8.113	0.100
322.800	6.799	0.100
322.900	6.912	0.100
323.000	10.674	0.100
323.100	3.069	0.100
323.200	16.675	0.100
323.300	-2.402	0.100
323.400	-2.490	0.100
323.500	8.689	0.100
323.600	7.635	0.100
323.700	0.827	0.100
323.800	14.627	0.100
323.900	-1.901	0.100
324.000	-1.087	0.100
324.100	-2.530	0.100
324.200	2.822	0.100
324.300	5.517	0.100
324.400	-0.593	0.100
324.500	1.979	0.100
324.600	1.035	0.100
324.700	-7.964	0.100
324.800	11.202	0.100
324.900	2.838	0.100
325.000	-0.817	0.100
325.100	0.437	0.100
325.200	7.398	0.100
325.300	0.229	0.100
325.400	3.905	0.100
325.500	9.655	0.100
325.600	11.103	0.100
325.700	-5.274	0.100
325.800	11.935	0.100
325.900	-2.920	0.100
326.000	1.748	0.100
326.100	7.723	0.100
326.200	4.265	0.100
326.300	3.660	0.100
326.400	0.220	0.100
326.500	1.477	0.100
326.600	5.120	0.100
326.700	-0.500	0.100
326.800	3.950	0.100
326.900	19.398	0.100
327.000	-4.182	0.100
327.100	-0.726	0.100
327.200	-0.989	0.100
327.300	0.081	0.100
327.400	0.543	0.100
327.500	-10.407	0.100
327.600	8.163	0.100
327.700	6.226	0.100
327.800	-2.449	0.100
327.900	0.565	0.100
328.000	3.009	0.100
328.100	1.768	0.100
328.200	10.708	0.100
328.300	2.377	0.100
328.400	11.566	0.100
328.500	-3.617	0.100
328.600	4.854	0.100
328.700	-1.899	0.100
328.800	3.206	0.100
328.900	-3.606	0.100
329.000	0.972	0.100
329.100	8.164	0.100
329.200	7.281	0.100
329.300	6.788	0.100
329.400	8.278	0.100
329.500	-0.495	0.100
329.600	8.425	0.100
329.700	6.961	0.100
329.800	-0.580	0.100
329.900	-2.909	0.100
330.000	0.449	0.100
330.100	2.952	0.100
330.200	0.897	0.100
330.300	7.167	0.100
330.400	5.955	0.100
330.500	6.118	0.100
330.600	8.639	0.100
330.700	6.557	0.100
330.800	2.998	0.100
330.900	-2.091	0.100
331.000	0.715	0.100
331.100	8.765	0.100
331.200	0.595	0.100
331.300	-1.240	0.100
331.400	12.015	0.100
331.500	7.413	0.100
331.600	8.503	0.100
331.700	6.090	0.100
331.800	6.093	0.100
331.900	2.752	0.100
332.000	2.311	0.100
332.100	1.799	0.100
332.200	14.242	0.100
332.300	-2.076	0.100
332.400	-6.027	0.100
332.500	3.132	0.100
332.600	7.570	0.100
332.700	-0.335	0.100
332.800	7.511	0.100
332.900	6.327	0.100
333.000	10.126	0.100
333.100	1.246	0.100
333.200	3.349	0.100
333.300	0.877	0.100
333.400	0.296	0.100
333.500	8.048	0.100
333.600	3.150	0.100
333.700	1.306	0.100
333.800	8.607	0.100
333.900	11.366	0.100
334.000	16.060	0.100
334.100	3.677	0.100
334.200	8.593	0.100
334.300	6.481	0.100
334.400	2.878	0.100
334.500	4.319	0.100
334.600	3.517	0.100
334.700	10.440	0.100
334.800	13.300	0.100
334.900	0.263	0.100
335.000	11.288	0.100
335.100	10.595	0.100
335.200	-3.331	0.100
335.300	-1.105	0.100
335.400	15.597	0.100
335.500	13.087	0.100
335.600	6.505	0.100
335.700	7.365	0.100
335.800	-0.972	0.100
335.900	6.361	0.100
336.000	5.618	0.100
336.100	6.768	0.100
336.200	16.849	0.100
336.300	8.094	0.100
336.400	1.058	0.100
336.500	-2.582	0.100
336.600	9.703	0.100
336.700	-3.054	0.100
336.800	9.599	0.100
336.900	-0.954	0.100
337.000	12.792	0.100
337.100	10.018	0.100
337.200	3.501	0.100
337.300	9.596	0.100
337.400	7.791	0.100
337.500	12.139	0.100
337.600	-4.717	0.100
337.700	15.458	0.100
337.800	1.360	0.100
337.900	8.745	0.100
338.000	-0.446	0.100
338.100	1.860	0.100
338.200	8.836	0.100
338.300	3.949	0.100
338.400	3.232	0.100
338.500	9.962	0.100
338.600	4.572	0.100
338.700	0.027	0.100
338.800	8.198	0.100
338.900	9.828	0.100
339.000	8.346	0.100
339.100	7.868	0.100
339.200	5.057	0.100
339.300	14.478	0.100
339.400	4.280	0.100
339.500	10.452	0.100
339.600	8.686	0.100
339.700	1.561	0.100
339.800	14.953	0.100
339.900	12.116	0.100
340.000	4.754	0.100
340.100	0.262	0.100
340.200	14.533	0.100
340.300	8.369	0.100
340.400	5.569	0.100
340.500	6.801	0.100
340.600	8.961	0.100
340.700	10.757	0.100
340.800	9.598	0.100
340.900	11.468	0.100
341.000	10.517	0.100
341.100	13.206	0.100
341.200	1.973	0.100
341.300	10.883	0.100
341.400	19.157	0.100
341.500	14.660	0.100
341.600	4.718	0.100
341.700	19.593	0.100
341.800	3.101	0.100
341.900	6.981	0.100
342.000	14.150	0.100
342.100	8.298	0.100
342.200	12.688	0.100
342.300	6.393	0.100
342.400	5.060	0.100
342.500	-2.875	0.100
342.600	9.320	0.100
342.700	10.655	0.100
342.800	17.372	0.100
342.900	-0.744	0.100
343.000	10.188	0.100
343.100	8.739	0.100
343.200	13.087	0.100
343.300	-3.403	0.100
343.400	13.563	0.100
343.500	1.402	0.100
343.600	1.639	0.100
343.700	7.184	0.100
343.800	5.729	0.100
343.900	17.194	0.100
344.000	17.143	0.100
344.100	11.850	0.100
344.200	10.379	0.100
344.300	13.146	0.100
344.400	11.042	0.100
344.500	5.258	0.100
344.600	1.970	0.100
344.700	6.360	0.100
344.800	-0.093	0.100
344.900	11.083	0.100
345.000	6.956	0.100
345.100	12.811	0.100
345.200	16.132	0.100
345.300	9.477	0.100
345.400	12.598	0.100
345.500	8.842	0.100
345.600	8.470	0.100
345.700	8.418	0.100
345.800	22.111	0.100
345.900	4.009	0.100
346.000	9.832	0.100
346.100	8.806	0.100
346.200	12.944	0.100
346.300	4.628	0.100
346.400	11.573	0.100
346.500	10.058	0.100
346.600	3.358	0.100
346.700	2.041	0.100
346.800	9.540	0.100
346.900	12.156	0.100
347.000	13.133	0.100
347.100	9.311	0.100
347.200	12.544	0.100
347.300	8.964	0.100
347.400	6.064	0.100
347.500	19.296	0.100
347.600	9.072	0.100
347.700	7.826	0.100
347.800	10.392	0.100
347.900	11.980	0.100
348.000	15.685	0.100
348.100	4.567	0.100
348.200	2.835	0.100
348.300	7.516	0.100
348.400	5.231	0.100
348.500	15.544	0.100
348.600	6.769	0.100
348.700	4.607	0.100
348.800	15.519	0.100
348.900	22.956	0.100
349.000	8.772	0.100
349.100	11.546	0.100
349.200	0.154	0.100
349.300	7.218	0.100
349.400	12.005	0.100
349.500	5.383	0.100
349.600	11.266	0.100
349.700	0.397	0.100
349.800	14.605	0.100
349.900	14.661	0.100
350.000	12.567	0.100
350.100	18.503	0.100
350.200	6.277	0.100
350.300	14.282	0.100
350.400	11.412	0.100
350.500	6.784	0.100
350.600	13.403	0.100
350.700	6.965	0.100
350.800	11.828	0.100
350.900	10.022	0.100
351.000	7.540	0.100
351.100	12.167	0.100
351.200	3.408	0.100
351.300	11.058	0.100
351.400	15.701	0.100
351.500	3.430	0.100
351.600	4.650	0.100
351.700	11.874	0.100
351.800	3.603	0.100
351.900	4.078	0.100
352.000	12.207	0.100
352.100	14.571	0.100
352.200	18.688	0.100
352.300	1.775	0.100
352.400	12.478	0.100
352.500	7.016	0.100
352.600	1.396	0.100
352.700	14.966	0.100
352.800	14.602	0.100
352.900	4.625	0.100
353.000	16.108	0.100
353.100	20.662	0.100
353.200	11.074	0.100
353.300	9.670	0.100
353.400	5.074	0.100
353.500	14.688	0.100
353.600	12.338	0.100
353.700	13.232	0.100
353.800	7.628	0.100
353.900	9.297	0.100
354.000	4.997	0.100
354.100	25.221	0.100
354.200	17.714	0.100
354.300	-6.866	0.100
354.400	11.772	0.100
354.500	10.679	0.100
354.600	8.150	0.100
354.700	9.620	0.100
354.800	8.233	0.100
354.900	14.051	0.100
355.000	11.005	0.100
355.100	11.043	0.100
355.200	11.139	0.100
355.300	10.784	0.100
355.400	13.198	0.100
355.500	5.245	0.100
355.600	13.938	0.100
355.700	5.743	0.100
355.800	10.682	0.100
355.900	15.817	0.100
356.000	20.231	0.100
356.100	12.828	0.100
356.200	9.467	0.100
356.300	12.213	0.100
356.400	7.693	0.100
356.500	17.944	0.100
356.600	12.697	0.100
356.700	8.027	0.100
356.800	2.300	0.100
356.900	10.293	0.100
357.000	17.379	0.100
357.100	9.214	0.100
357.200	8.130	0.100
357.300	9.220	0.100
357.400	15.465	0.100
357.500	15.732	0.100
357.600	10.120	0.100
357.700	11.995	0.100
357.800	16.552	0.100
357.900	11.717	0.100
358.000	9.781	0.100
358.100	14.814	0.100
358.200	14.039	0.100
358.300	15.197	0.100
358.400	5.634	0.100
358.500	4.986	0.100
358.600	16.114	0.100
358.700	12.161	0.100
358.800	-0.066	0.100
358.900	3.143	0.100
359.000	14.221	0.100
359.100	7.163	0.100
359.200	14.239	0.100
359.300	11.196	0.100
359.400	10.545	0.100
359.500	3.594	0.100
359.600	21.758	0.100
359.700	19.293	0.100
359.800	5.633	0.100
359.900	12.012	0.100
360.000	10.209	0.100
360.100	18.016	0.100
360.200	12.000	0.100
360.300	4.648	0.100
360.400	20.709	0.100
360.500	17.833	0.100
360.600	2.583	0.100
360.700	14.124	0.100
360.800	6.937	0.100
360.900	8.327	0.100
361.000	8.879	0.100
361.100	8.057	0.100
361.200	0.446	0.100
361.300	20.086	0.100
361.400	7.727	0.100
361.500	12.788	0.100
361.600	22.132	0.100
361.700	6.596	0.100
361.800	12.770	0.100
361.900	21.300	0.100
362.000	19.345	0.100
362.100	2.884	0.100
362.200	3.481	0.100
362.300	2.273	0.100
362.400	15.245	0.100
362.500	13.537	0.100
362.600	13.326	0.100
362.700	10.709	0.100
362.800	19.932	0.100
362.900	21.059	0.100
363.000	21.018	0.100
363.100	5.703	0.100
363.200	10.310	0.100
363.300	20.258	0.100
363.400	17.034	0.100
363.500	12.059	0.100
363.600	9.936	0.100
363.700	9.954	0.100
363.800	5.307	0.100
363.900	17.319	0.100
364.000	13.333	0.100
364.100	9.488	0.100
364.200	3.379	0.100
364.300	12.245	0.100
364.400	6.627	0.100
364.500	1.392	0.100
364.600	19.528	0.100
364.700	16.783	0.100
364.800	8.197	0.100
364.900	13.451	0.100
365.000	19.074	0.100
365.100	11.830	0.100
365.200	7.286	0.100
365.300	8.618	0.100
365.400	12.744	0.100
365.500	7.603	0.100
365.600	11.964	0.100
365.700	7.001	0.100
365.800	1.134	0.100
365.900	15.829	0.100
366.000	16.355	0.100
366.100	8.122	0.100
366.200	10.021	0.100
366.300	20.886	0.100
366.400	13.648	0.100
366.500	14.155	0.100
366.600	10.985	0.100
366.700	2.861	0.100
366.800	14.309	0.100
366.900	10.621	0.100
367.000	14.356	0.100
367.100	5.011	0.100
367.200	17.289	0.100
367.300	19.310	0.100
367.400	4.591	0.100
367.500	9.216	0.100
367.600	11.582	0.100
367.700	-1.596	0.100
367.800	1.204	0.100
367.900	9.722	0.100
368.000	6.465	0.100
368.100	15.922	0.100
368.200	13.067	0.100
368.300	15.507	0.100
368.400	16.362	0.100
368.500	7.195	0.100
368.600	11.614	0.100
368.700	16.191	0.100
368.800	11.601	0.100
368.900	10.023	0.100
369.000	12.260	0.100
369.100	4.434	0.100
369.200	6.560	0.100
369.300	8.277	0.100
369.400	14.216	0.100
369.500	20.939	0.100
369.600	11.611	0.100
369.700	21.384	0.100
369.800	7.329	0.100
369.900	4.422	0.100
370.000	12.176	0.100
370.100	13.849	0.100
370.200	12.452	0.100
370.300	6.555	0.100
370.400	2.327	0.100
370.500	8.487	0.100
370.600	13.654	0.100
370.700	17.392	0.100
370.800	12.588	0.100
370.900	16.133	0.100
371.000	14.813	0.100
371.100	19.889	0.100
371.200	17.015	0.100
371.300	16.680	0.100
371.400	-2.151	0.100
371.500	14.919	0.100
371.600	4.923	0.100
371.700	9.415	0.100
371.800	7.051	0.100
371.900	6.668	0.100
372.000	1.975	0.100
372.100	18.245	0.100
372.200	5.097	0.100
372.300	16.650	0.100
372.400	15.507	0.100
372.500	1.014	0.100
372.600	9.294	0.100
372.700	12.812	0.100
372.800	9.774	0.100
372.900	10.889	0.100
373.000	11.679	0.100
373.100	5.640	0.100
373.200	13.523	0.100
373.300	12.458	0.100
373.400	6.520	0.100
373.500	10.976	0.100
373.600	17.050	0.100
373.700	14.246	0.100
373.800	20.772	0.100
373.900	9.949	0.100
374.000	20.142	0.100
374.100	8.867	0.100
374.200	12.747	0.100
374.300	7.284	0.100
374.400	15.026	0.100
374.500	16.176	0.100
374.600	5.493	0.100
374.700	13.176	0.100
374.800	15.215	0.100
374.900	12.966	0.100
375.000	0.130	0.100
375.100	12.171	0.100
375.200	11.418	0.100
375.300	12.004	0.100
375.400	16.968	0.100
375.500	10.565	0.100
375.600	12.427	0.100
375.700	5.862	0.100
375.800	19.580	0.100
375.900	8.822	0.100
376.000	15.762	0.100
376.100	1.698	0.100
376.200	17.605	0.100
376.300	13.219	0.100
376.400	16.162	0.100
376.500	20.060	0.100
376.600	9.113	0.100
376.700	4.482	0.100
376.800	8.668	0.100
376.900	21.453	0.100
377.000	6.595	0.100
377.100	20.606	0.100
377.200	11.159	0.100
377.300	9.736	0.100
377.400	4.916	0.100
377.500	-0.306	0.100
377.600	15.895	0.100
377.700	7.186	0.100
377.800	18.353	0.100
377.900	8.275	0.100
378.000	18.119	0.100
378.100	16.034	0.100
378.200	9.527	0.100
378.300	12.740	0.100
378.400	12.175	0.100
378.500	5.616	0.100
378.600	2.830	0.100
378.700	11.733	0.100
378.800	13.037	0.100
378.900	10.617	0.100
379.000	16.639	0.100
379.100	16.197	0.100
379.200	19.498	0.100
379.300	10.501	0.100
379.400	1.735	0.100
379.500	8.293	0.100
379.600	13.931	0.100
379.700	19.098	0.100
379.800	9.057	0.100
379.900	6.203	0.100
380.000	16.486	0.100
380.100	17.235	0.100
380.200	16.256	0.100
380.300	10.819	0.100
380.400	21.562	0.100
380.500	10.534	0.100
380.600	31.914	0.100
380.700	11.424	0.100
380.800	12.699	0.100
380.900	16.012	0.100
381.000	13.849	0.100
381.100	9.019	0.100
381.200	16.430	0.100
381.300	12.332	0.100
381.400	6.577	0.100
381.500	4.917	0.100
381.600	3.454	0.100
381.700	7.693	0.100
381.800	9.902	0.100
381.900	10.327	0.100
382.000	13.577	0.100
382.100	12.269	0.100
382.200	17.385	0.100
382.300	10.311	0.100
382.400	10.269	0.100
382.500	15.659	0.100
382.600	25.497	0.100
382.700	9.256	0.100
382.800	7.651	0.100
382.900	5.366	0.100
383.000	19.263	0.100
383.100	10.741	0.100
383.200	6.662	0.100
383.300	5.711	0.100
383.400	8.393	0.100
383.500	5.228	0.100
383.600	10.151	0.100
383.700	19.902	0.100
383.800	17.156	0.100
383.900	10.282	0.100
384.000	17.055	0.100
384.100	27.427	0.100
384.200	14.729	0.100
384.300	4.427	0.100
384.400	9.458	0.100
384.500	1.245	0.100
384.600	14.597	0.100
384.700	20.505	0.100
384.800	11.298	0.100
384.900	9.341	0.100
385.000	11.252	0.100
385.100	18.793	0.100
385.200	11.045	0.100
385.300	9.172	0.100
385.400	16.450	0.100
385.500	10.539	0.100
385.600	3.464	0.100
385.700	10.633	0.100
385.800	8.595	0.100
385.900	-0.513	0.100
386.000	7.427	0.100
386.100	21.670	0.100
386.200	13.379	0.100
386.300	17.752	0.100
386.400	13.380	0.100
386.500	18.991	0.100
386.600	16.410	0.100
386.700	5.881	0.100
386.800	15.072	0.100
386.900	11.191	0.100
387.000	20.567	0.100
387.100	8.079	0.100
387.200	13.428	0.100
387.300	14.813	0.100
387.400	13.459	0.100
387.500	21.774	0.100
387.600	18.647	0.100
387.700	9.244	0.100
387.800	11.775	0.100
387.900	1.367	0.100
388.000	10.708	0.100
388.100	20.389	0.100
388.200	17.828	0.100
388.300	10.913	0.100
388.400	14.181	0.100
388.500	17.315	0.100
388.600	9.122	0.100
388.700	15.041	0.100
388.800	12.479	0.100
388.900	9.930	0.100
389.000	12.285	0.100
389.100	13.358	0.100
389.200	3.406	0.100
389.300	23.386	0.100
389.400	12.143	0.100
389.500	13.821	0.100
389.600	13.313	0.100
389.700	8.357	0.100
389.800	21.452	0.100
389.900	13.272	0.100
390.000	10.983	0.100
390.100	14.716	0.100
390.200	18.415	0.100
390.300	9.613	0.100
390.400	7.815	0.100
390.500	5.334	0.100
390.600	20.442	0.100
390.700	10.307	0.100
390.800	18.033	0.100
390.900	12.222	0.100
391.000	15.649	0.100
391.100	10.447	0.100
391.200	19.821	0.100
391.300	11.517	0.100
391.400	7.645	0.100
391.500	-4.420	0.100
391.600	16.087	0.100
391.700	21.394	0.100
391.800	9.561	0.100
391.900	5.751	0.100
392.000	8.763	0.100
392.100	16.127	0.100
392.200	17.403	0.100
392.300	18.188	0.100
392.400	15.149	0.100
392.500	3.758	0.100
392.600	24.522	0.100
392.700	12.580	0.100
392.800	6.672	0.100
392.900	5.744	0.100
393.000	13.493	0.100
393.100	-0.487	0.100
393.200	5.844	0.100
393.300	13.327	0.100
393.400	5.549	0.100
393.500	7.271	0.100
393.600	13.291	0.100
393.700	2.771	0.100
393.800	11.861	0.100
393.900	17.036	0.100
394.000	10.386	0.100
394.100	16.578	0.100
394.200	9.068	0.100
394.300	13.709	0.100
394.400	3.532	0.100
394.500	2.092	0.100
394.600	15.063	0.100
394.700	5.133	0.100
394.800	3.291	0.100
394.900	9.605	0.100
395.000	16.633	0.100
395.100	14.250	0.100
395.200	21.820	0.100
395.300	14.021	0.100
395.400	8.611	0.100
395.500	16.778	0.100
395.600	7.229	0.100
395.700	11.395	0.100
395.800	7.730	0.100
395.900	10.911	0.100
396.000	14.202	0.100
396.100	10.840	0.100
396.200	15.782	0.100
396.300	10.966	0.100
396.400	4.797	0.100
396.500	-0.260	0.100
396.600	10.108	0.100
396.700	12.202	0.100
396.800	16.622	0.100
396.900	13.278	0.100
397.000	11.751	0.100
397.100	3.074	0.100
397.200	17.588	0.100
397.300	5.840	0.100
397.400	13.053	0.100
397.500	17.556	0.100
397.600	15.740	0.100
397.700	16.089	0.100
397.800	8.086	0.100
397.900	12.877	0.100
398.000	16.876	0.100
398.100	11.088	0.100
398.200	7.973	0.100
398.300	5.872	0.100
398.400	4.230	0.100
398.500	11.500	0.100
398.600	-0.553	0.100
398.700	21.306	0.100
398.800	13.915	0.100
398.900	6.779	0.100
399.000	3.877	0.100
399.100	13.530	0.100
399.200	11.976	0.100
399.300	9.148	0.100
399.400	6.313	0.100
399.500	-1.491	0.100
399.600	7.922	0.100
399.700	10.719	0.100
399.800	11.534	0.100
399.900	4.193	0.100
400.000	0.420	0.100
400.100	4.619	0.100
400.200	10.787	0.100
400.300	6.174	0.100
400.400	16.716	0.100
400.500	24.884	0.100
400.600	14.901	0.100
400.700	10.287	0.100
400.800	11.607	0.100
400.900	15.656	0.100
401.000	11.108	0.100
401.100	15.303	0.100
401.200	1.636	0.100
401.300	20.278	0.100
401.400	12.262	0.100
401.500	10.940	0.100
401.600	9.040	0.100
401.700	14.231	0.100
401.800	15.276	0.100
401.900	8.768	0.100
402.000	11.560	0.100
402.100	4.286	0.100
402.200	14.798	0.100
402.300	11.723	0.100
402.400	10.832	0.100
402.500	5.776	0.100
402.600	-1.829	0.100
402.700	10.902	0.100
402.800	11.051	0.100
402.900	12.596	0.100
403.000	8.772	0.100
403.100	-2.950	0.100
403.200	11.307	0.100
403.300	7.744	0.100
403.400	12.763	0.100
403.500	11.682	0.100
403.600	10.186	0.100
403.700	7.959	0.100
403.800	-3.037	0.100
403.900	2.359	0.100
404.000	7.929	0.100
404.100	19.269	0.100
404.200	15.973	0.100
404.300	11.447	0.100
404.400	5.758	0.100
404.500	8.113	0.100
404.600	7.748	0.100
404.700	15.757	0.100
404.800	14.894	0.100
404.900	12.320	0.100
405.000	4.461	0.100
405.100	0.894	0.100
405.200	12.270	0.100
405.300	4.214	0.100
405.400	2.257	0.100
405.500	9.962	0.100
405.600	14.498	0.100
405.700	14.622	0.100
405.800	4.671	0.100
405.900	5.475	0.100
406.000	2.016	0.100
406.100	10.246	0.100
406.200	16.264	0.100
406.300	11.965	0.100
406.400	10.061	0.100
406.500	7.129	0.100
406.600	2.314	0.100
406.700	8.571	0.100
406.800	-10.040	0.100
406.900	6.473	0.100
407.000	10.393	0.100
407.100	2.581	0.100
407.200	11.500	0.100
407.300	9.973	0.100
407.400	17.652	0.100
407.500	21.484	0.100
407.600	9.410	0.100
407.700	-0.640	0.100
407.800	9.000	0.100
407.900	3.106	0.100
408.000	4.356	0.100
408.100	8.989	0.100
408.200	11.091	0.100
408.300	5.726	0.100
408.400	8.261	0.100
408.500	-7.187	0.100
408.600	8.932	0.100
408.700	16.550	0.100
408.800	14.603	0.100
408.900	5.561	0.100
409.000	10.500	0.100
409.100	11.402	0.100
409.200	-6.593	0.100
409.300	17.413	0.100
409.400	12.651	0.100
409.500	5.786	0.100
409.600	8.380	0.100
409.700	7.419	0.100
409.800	11.262	0.100
409.900	1.949	0.100
410.000	0.836	0.100
410.100	9.863	0.100
410.200	20.585	0.100
410.300	10.531	0.100
410.400	0.813	0.100
410.500	1.351	0.100
410.600	7.810	0.100
410.700	-2.066	0.100
410.800	15.187	0.100
410.900	6.632	0.100
411.000	8.025	0.100
411.100	12.257	0.100
411.200	9.158	0.100
411.300	12.159	0.100
411.400	4.233	0.100
411.500	1.378	0.100
411.600	6.126	0.100
411.700	0.056	0.100
411.800	6.212	0.100
411.900	20.192	0.100
412.000	16.361	0.100
412.100	2.636	0.100
412.200	16.665	0.100
412.300	14.041	0.100
412.400	5.167	0.100
412.500	6.502	0.100
412.600	11.271	0.100
412.700	-0.165	0.100
412.800	12.605	0.100
412.900	17.216	0.100
413.000	13.335	0.100
413.100	-1.549	0.100
413.200	7.366	0.100
413.300	-4.703	0.100
413.400	10.611	0.100
413.500	9.434	0.100
413.600	2.000	0.100
413.700	-4.563	0.100
413.800	13.068	0.100
413.900	8.910	0.100
414.000	7.828	0.100
414.100	6.302	0.100
414.200	4.870	0.100
414.300	5.211	0.100
414.400	9.865	0.100
414.500	12.554	0.100
414.600	8.080	0.100
414.700	3.819	0.100
414.800	9.617	0.100
414.900	7.335	0.100
415.000	11.750	0.100
415.100	14.630	0.100
415.200	-0.869	0.100
415.300	7.385	0.100
415.400	7.084	0.100
415.500	1.711	0.100
415.600	10.756	0.100
415.700	12.289	0.100
415.800	7.863	0.100
415.900	4.414	0.100
416.000	7.795	0.100
416.100	7.087	0.100
416.200	11.719	0.100
416.300	-1.381	0.100
416.400	0.420	0.100
416.500	14.773	0.100
416.600	5.568	0.100
416.700	11.713	0.100
416.800	6.039	0.100
416.900	15.996	0.100
417.000	7.126	0.100
417.100	7.610	0.100
417.200	11.563	0.100
417.300	8.789	0.100
417.400	5.576	0.100
417.500	8.649	0.100
417.600	5.511	0.100
417.700	1.262	0.100
417.800	10.055	0.100
417.900	6.860	0.100
418.000	1.890	0.100
418.100	21.075	0.100
418.200	6.252	0.100
418.300	5.318	0.100
418.400	4.549	0.100
418.500	20.762	0.100
418.600	9.945	0.100
418.700	9.102	0.100
418.800	-4.571	0.100
418.900	-2.197	0.100
419.000	11.571	0.100
419.100	8.928	0.100
419.200	6.707	0.100
419.300	14.356	0.100
419.400	4.150	0.100
419.500	3.582	0.100
419.600	9.322	0.100
419.700	4.580	0.100
419.800	9.155	0.100
419.900	8.027	0.100
420.000	11.327	0.100
420.100	4.588	0.100
420.200	1.178	0.100
420.300	7.645	0.100
420.400	1.521	0.100
420.500	8.297	0.100
420.600	17.502	0.100
420.700	7.094	0.100
420.800	9.658	0.100
420.900	-0.396	0.100
421.000	5.083	0.100
421.100	6.832	0.100
421.200	-0.310	0.100
421.300	-2.779	0.100
421.400	12.522	0.100
421.500	15.226	0.100
421.600	13.866	0.100
421.700	3.978	0.100
421.800	4.554	0.100
421.900	12.220	0.100
422.000	-4.860	0.100
422.100	6.733	0.100
422.200	3.045	0.100
422.300	1.964	0.100
422.400	16.131	0.100
422.500	12.172	0.100
422.600	10.638	0.100
422.700	5.712	0.100
422.800	-5.172	0.100
422.900	3.950	0.100
423.000	5.309	0.100
423.100	-2.509	0.100
423.200	6.286	0.100
423.300	16.902	0.100
423.400	0.400	0.100
423.500	8.631	0.100
423.600	10.356	0.100
423.700	7.948	0.100
423.800	6.270	0.100
423.900	-1.746	0.100
424.000	4.079	0.100
424.100	13.448	0.100
424.200	5.660	0.100
424.300	9.405	0.100
424.400	1.270	0.100
424.500	11.017	0.100
424.600	12.071	0.100
424.700	7.229	0.100
424.800	6.554	0.100
424.900	3.896	0.100
425.000	9.103	0.100
425.100	0.034	0.100
425.200	3.411	0.100
425.300	5.327	0.100
425.400	19.219	0.100
425.500	16.245	0.100
425.600	9.255	0.100
425.700	-1.926	0.100
425.800	8.614	0.100
425.900	5.073	0.100
426.000	1.981	0.100
426.100	3.288	0.100
426.200	10.529	0.100
426.300	8.000	0.100
426.400	2.523	0.100
426.500	0.454	0.100
426.600	4.829	0.100
426.700	10.322	0.100
426.800	14.645	0.100
426.900	2.617	0.100
427.000	8.386	0.100
427.100	-3.080	0.100
427.200	7.612	0.100
427.300	6.734	0.100
427.400	10.285	0.100
427.500	5.287	0.100
427.600	0.075	0.100
427.700	13.693	0.100
427.800	-1.185	0.100
427.900	1.209	0.100
428.000	17.509	0.100
428.100	16.769	0.100
428.200	1.154	0.100
428.300	6.518	0.100
428.400	1.642	0.100
428.500	-0.675	0.100
428.600	6.613	0.100
428.700	8.949	0.100
428.800	1.896	0.100
428.900	5.908	0.100
429.000	14.927	0.100
429.100	7.104	0.100
429.200	5.309	0.100
429.300	5.260	0.100
429.400	18.903	0.100
429.500	-0.236	0.100
429.600	6.179	0.100
429.700	-1.322	0.100
429.800	7.915	0.100
429.900	8.954	0.100
430.000	3.905	0.100
430.100	1.682	0.100
430.200	9.273	0.100
430.300	5.030	0.100
430.400	6.022	0.100
430.500	15.735	0.100
430.600	4.378	0.100
430.700	8.006	0.100
430.800	6.231	0.100
430.900	8.334	0.100
431.000	4.242	0.100
431.100	5.377	0.100
431.200	10.665	0.100
431.300	-1.361	0.100
431.400	3.468	0.100
431.500	5.315	0.100
431.600	1.275	0.100
431.700	12.761	0.100
431.800	9.984	0.100
431.900	6.429	0.100
432.000	3.911	0.100
432.100	14.547	0.100
432.200	10.328	0.100
432.300	4.299	0.100
432.400	9.983	0.100
432.500	6.445	0.100
432.600	2.953	0.100
432.700	9.455	0.100
432.800	7.829	0.100
432.900	-1.537	0.100
433.000	6.563	0.100
433.100	21.586	0.100
433.200	15.594	0.100
433.300	1.592	0.100
433.400	3.426	0.100
433.500	4.684	0.100
433.600	-2.650	0.100
433.700	3.824	0.100
433.800	0.570	0.100
433.900	19.791	0.100
434.000	14.148	0.100
434.100	5.279	0.100
434.200	9.150	0.100
434.300	14.613	0.100
434.400	1.645	0.100
434.500	0.095	0.100
434.600	10.892	0.100
434.700	6.190	0.100
434.800	3.484	0.100
434.900	10.488	0.100
435.000	10.565	0.100
435.100	4.766	0.100
435.200	5.985	0.100
435.300	11.550	0.100
435.400	0.531	0.100
435.500	3.776	0.100
435.600	3.099	0.100
435.700	9.212	0.100
435.800	8.632	0.100
435.900	4.648	0.100
436.000	5.885	0.100
436.100	12.402	0.100
436.200	3.935	0.100
436.300	2.492	0.100
436.400	10.733	0.100
436.500	6.370	0.100
436.600	9.262	0.100
436.700	9.741	0.100
436.800	14.317	0.100
436.900	6.915	0.100
437.000	-6.530	0.100
437.100	2.724	0.100
437.200	10.523	0.100
437.300	10.566	0.100
437.400	10.993	0.100
437.500	3.444	0.100
437.600	2.923	0.100
437.700	-1.257	0.100
437.800	16.962	0.100
437.900	6.222	0.100
438.000	-0.106	0.100
438.100	7.873	0.100
438.200	0.460	0.100
438.300	1.305	0.100
438.400	6.809	0.100
438.500	9.003	0.100
438.600	18.261	0.100
438.700	9.754	0.100
438.800	11.120	0.100
438.900	10.723	0.100
439.000	0.405	0.100
439.100	10.953	0.100
439.200	-5.570	0.100
439.300	18.281	0.100
439.400	9.996	0.100
439.500	2.413	0.100
439.600	6.167	0.100
439.700	2.305	0.100
439.800	4.841	0.100
439.900	-5.799	0.100
440.000	15.845	0.100
440.100	5.964	0.100
440.200	4.281	0.100
440.300	8.877	0.100
440.400	2.866	0.100
440.500	0.755	0.100
440.600	10.006	0.100
440.700	2.508	0.100
440.800	-0.618	0.100
440.900	13.953	0.100
441.000	0.937	0.100
441.100	8.200	0.100
441.200	8.929	0.100
441.300	10.448	0.100
441.400	5.981	0.100
441.500	-3.162	0.100
441.600	11.817	0.100
441.700	10.756	0.100
441.800	10.913	0.100
441.900	2.322	0.100
442.000	-0.490	0.100
442.100	9.131	0.100
442.200	9.304	0.100
442.300	3.663	0.100
442.400	8.388	0.100
442.500	12.518	0.100
442.600	8.346	0.100
442.700	6.367	0.100
442.800	10.904	0.100
442.900	-0.805	0.100
443.000	6.361	0.100
443.100	11.566	0.100
443.200	6.540	0.100
443.300	4.244	0.100
443.400	1.529	0.100
443.500	6.865	0.100
443.600	5.440	0.100
443.700	10.681	0.100
443.800	5.865	0.100
443.900	0.409	0.100
444.000	-0.949	0.100
444.100	-1.142	0.100
444.200	11.798	0.100
444.300	4.708	0.100
444.400	9.699	0.100
444.500	6.537	0.100
444.600	2.967	0.100
444.700	-4.007	0.100
444.800	5.025	0.100
444.900	4.845	0.100
445.000	13.454	0.100
445.100	3.073	0.100
445.200	1.732	0.100
445.300	12.056	0.100
445.400	-1.153	0.100
445.500	0.547	0.100
445.600	8.294	0.100
445.700	8.665	0.100
445.800	15.642	0.100
445.900	-1.197	0.100
446.000	4.441	0.100
446.100	13.621	0.100
446.200	1.044	0.100
446.300	2.843	0.100
446.400	4.790	0.100
446.500	9.995	0.100
446.600	14.514	0.100
446.700	1.205	0.100
446.800	7.985	0.100
446.900	-2.250	0.100
447.000	4.229	0.100
447.100	3.718	0.100
447.200	2.786	0.100
447.300	5.754	0.100
447.400	5.998	0.100
447.500	8.037	0.100
447.600	7.439	0.100
447.700	16.857	0.100
447.800	11.990	0.100
447.900	10.767	0.100
448.000	5.632	0.100
448.100	11.978	0.100
448.200	10.693	0.100
448.300	1.041	0.100
448.400	-3.641	0.100
448.500	0.991	0.100
448.600	10.506	0.100
448.700	11.771	0.100
448.800	1.696	0.100
448.900	4.660	0.100
449.000	4.609	0.100
449.100	0.881	0.100
449.200	4.309	0.100
449.300	5.143	0.100
449.400	6.826	0.100
449.500	1.684	0.100
449.600	13.870	0.100
449.700	-2.093	0.100
449.800	9.408	0.100
449.900	9.233	0.100
450.000	2.582	0.100
450.100	4.933	0.100
450.200	-0.433	0.100
450.300	13.739	0.100
450.400	2.044	0.100
450.500	10.459	0.100
450.600	-0.270	0.100
450.700	3.351	0.100
450.800	13.899	0.100
450.900	4.608	0.100
451.000	6.166	0.100
451.100	14.733	0.100
451.200	10.611	0.100
451.300	6.421	0.100
451.400	15.053	0.100
451.500	2.474	0.100
451.600	-2.374	0.100
451.700	11.528	0.100
451.800	3.806	0.100
451.900	3.439	0.100
452.000	3.475	0.100
452.100	-0.196	0.100
452.200	9.620	0.100
452.300	4.393	0.100
452.400	6.161	0.100
452.500	7.886	0.100
452.600	7.091	0.100
452.700	8.291	0.100
452.800	4.296	0.100
452.900	-1.839	0.100
453.000	2.763	0.100
453.100	12.540	0.100
453.200	12.152	0.100
453.300	15.420	0.100
453.400	-1.831	0.100
453.500	3.884	0.100
453.600	12.664	0.100
453.700	12.730	0.100
453.800	14.432	0.100
453.900	14.835	0.100
454.000	-7.667	0.100
454.100	2.304	0.100
454.200	10.578	0.100
454.300	6.669	0.100
454.400	-1.241	0.100
454.500	3.606	0.100
454.600	8.065	0.100
454.700	14.371	0.100
454.800	4.292	0.100
454.900	6.806	0.100
455.000	9.831	0.100
455.100	-3.497	0.100
455.200	6.140	0.100
455.300	4.478	0.100
455.400	4.628	0.100
455.500	-1.896	0.100
455.600	7.528	0.100
455.700	-4.079	0.100
455.800	0.043	0.100
455.900	11.550	0.100
456.000	6.045	0.100
456.100	8.217	0.100
456.200	6.544	0.100
456.300	8.287	0.100
456.400	6.475	0.100
456.500	-1.020	0.100
456.600	5.931	0.100
456.700	16.151	0.100
456.800	-1.822	0.100
456.900	9.495	0.100
457.000	2.918	0.100
457.100	7.181	0.100
457.200	13.284	0.100
457.300	-8.222	0.100
457.400	3.458	0.100
457.500	13.535	0.100
457.600	6.862	0.100
457.700	6.043	0.100
457.800	1.732	0.100
457.900	-0.650	0.100
458.000	10.246	0.100
458.100	14.359	0.100
458.200	7.902	0.100
458.300	5.006	0.100
458.400	-3.783	0.100
458.500	3.466	0.100
458.600	6.664	0.100
458.700	7.352	0.100
458.800	8.921	0.100
458.900	6.276	0.100
459.000	5.504	0.100
459.100	12.162	0.100
459.200	5.902	0.100
459.300	14.715	0.100
459.400	14.817	0.100
459.500	-2.199	0.100
459.600	-1.962	0.100
459.700	15.969	0.100
459.800	10.514	0.100
459.900	1.104	0.100
460.000	-5.885	0.100
460.100	3.033	0.100
460.200	18.463	0.100
460.300	-5.523	0.100
460.400	6.514	0.100
460.500	-0.011	0.100
460.600	5.864	0.100
460.700	4.066	0.100
460.800	14.106	0.100
460.900	2.616	0.100
461.000	3.668	0.100
461.100	7.811	0.100
461.200	17.495	0.100
461.300	7.818	0.100
461.400	2.597	0.100
461.500	3.193	0.100
461.600	-1.146	0.100
461.700	15.115	0.100
461.800	6.156	0.100
461.900	6.514	0.100
462.000	0.923	0.100
462.100	-1.193	0.100
462.200	2.984	0.100
462.300	9.488	0.100
462.400	1.371	0.100
462.500	0.601	0.100
462.600	10.045	0.100
462.700	11.178	0.100
462.800	11.559	0.100
462.900	2.156	0.100
463.000	-2.820	0.100
463.100	7.343	0.100
463.200	13.699	0.100
463.300	-3.750	0.100
463.400	3.134	0.100
463.500	4.772	0.100
463.600	7.659	0.100
463.700	-0.304	0.100
463.800	7.421	0.100
463.900	13.895	0.100
464.000	8.614	0.100
464.100	-0.288	0.100
464.200	8.435	0.100
464.300	3.832	0.100
464.400	1.359	0.100
464.500	14.449	0.100
464.600	3.418	0.100
464.700	3.136	0.100
464.800	7.429	0.100
464.900	3.545	0.100
465.000	15.757	0.100
465.100	9.141	0.100
465.200	1.672	0.100
465.300	5.388	0.100
465.400	9.247	0.100
465.500	17.750	0.100
465.600	8.288	0.100
465.700	4.213	0.100
465.800	11.656	0.100
465.900	0.737	0.100
466.000	2.826	0.100
466.100	9.941	0.100
466.200	2.397	0.100
466.300	3.463	0.100
466.400	6.408	0.100
466.500	-1.792	0.100
466.600	16.302	0.100
466.700	6.881	0.100
466.800	1.084	0.100
466.900	11.341	0.100
467.000	3.073	0.100
467.100	13.056	0.100
467.200	-0.096	0.100
467.300	10.602	0.100
467.400	4.868	0.100
467.500	-4.644	0.100
467.600	13.067	0.100
467.700	12.006	0.100
467.800	1.790	0.100
467.900	0.585	0.100
468.000	5.007	0.100
468.100	-3.265	0.100
468.200	12.453	0.100
468.300	7.656	0.100
468.400	12.177	0.100
468.500	8.821	0.100
468.600	7.750	0.100
468.700	2.982	0.100
468.800	14.358	0.100
468.900	4.358	0.100
469.000	8.712	0.100
469.100	-2.898	0.100
469.200	-1.528	0.100
469.300	6.400	0.100
469.400	2.333	0.100
469.500	6.350	0.100
469.600	7.984	0.100
469.700	11.149	0.100
469.800	5.254	0.100
469.900	-3.439	0.100
470.000	-3.411	0.100
470.100	9.235	0.100
470.200	13.050	0.100
470.300	8.081	0.100
470.400	10.342	0.100
470.500	-3.129	0.100
470.600	8.158	0.100
470.700	3.443	0.100
470.800	9.092	0.100
470.900	9.223	0.100
471.000	2.538	0.100
471.100	10.179	0.100
471.200	0.437	0.100
471.300	11.985	0.100
471.400	5.714	0.100
471.500	13.209	0.100
471.600	4.099	0.100
471.700	3.170	0.100
471.800	6.446	0.100
471.900	7.057	0.100
472.000	14.752	0.100
472.100	11.194	0.100
472.200	7.901	0.100
472.300	-0.960	0.100
472.400	6.724	0.100
472.500	12.273	0.100
472.600	21.261	0.100
472.700	3.065	0.100
472.800	6.235	0.100
472.900	6.152	0.100
473.000	6.037	0.100
473.100	-4.467	0.100
473.200	-1.129	0.100
473.300	2.669	0.100
473.400	16.776	0.100
473.500	8.086	0.100
473.600	13.103	0.100
473.700	10.575	0.100
473.800	10.368	0.100
473.900	7.871	0.100
474.000	7.713	0.100
474.100	10.185	0.100
474.200	2.682	0.100
474.300	10.866	0.100
474.400	5.927	0.100
474.500	15.584	0.100
474.600	29.389	0.100
474.700	14.974	0.100
474.800	1.023	0.100
474.900	16.418	0.100
475.000	-2.094	0.100
475.100	16.120	0.100
475.200	4.743	0.100
475.300	7.308	0.100
475.400	10.316	0.100
475.500	0.071	0.100
475.600	4.637	0.100
475.700	4.374	0.100
475.800	15.704	0.100
475.900	13.703	0.100
476.000	7.146	0.100
476.100	12.026	0.100
476.200	4.048	0.100
476.300	12.177	0.100
476.400	2.987	0.100
476.500	2.766	0.100
476.600	8.846	0.100
476.700	5.760	0.100
476.800	8.664	0.100
476.900	13.084	0.100
477.000	4.069	0.100
477.100	0.672	0.100
477.200	10.122	0.100
477.300	17.424	0.100
477.400	-0.227	0.100
477.500	3.856	0.100
477.600	9.208	0.100
477.700	11.140	0.100
477.800	13.239	0.100
477.900	3.850	0.100
478.000	14.927	0.100
478.100	11.585	0.100
478.200	15.888	0.100
478.300	1.872	0.100
478.400	1.784	0.100
478.500	10.456	0.100
478.600	9.341	0.100
478.700	-2.977	0.100
478.800	6.186	0.100
478.900	7.058	0.100
479.000	4.602	0.100
479.100	0.006	0.100
479.200	11.520	0.100
479.300	3.853	0.100
479.400	10.826	0.100
479.500	1.636	0.100
479.600	10.100	0.100
479.700	7.808	0.100
479.800	4.679	0.100
479.900	19.236	0.100
480.000	6.792	0.100
480.100	10.752	0.100
480.200	9.224	0.100
480.300	3.980	0.100
480.400	18.479	0.100
480.500	1.746	0.100
480.600	7.338	0.100
480.700	15.624	0.100
480.800	3.804	0.100
480.900	4.586	0.100
481.000	0.804	0.100
481.100	19.467	0.100
481.200	15.167	0.100
481.300	-0.019	0.100
481.400	-1.636	0.100
481.500	5.069	0.100
481.600	8.850	0.100
481.700	18.745	0.100
481.800	8.426	0.100
481.900	2.820	0.100
482.000	11.928	0.100
482.100	9.726	0.100
482.200	-1.575	0.100
482.300	6.484	0.100
482.400	12.907	0.100
482.500	19.773	0.100
482.600	3.104	0.100
482.700	-5.365	0.100
482.800	3.732	0.100
482.900	21.547	0.100
483.000	12.102	0.100
483.100	4.412	0.100
483.200	12.668	0.100
483.300	7.020	0.100
483.400	9.113	0.100
483.500	-0.274	0.100
483.600	9.754	0.100
483.700	-1.959	0.100
483.800	2.877	0.100
483.900	4.113	0.100
484.000	2.871	0.100
484.100	6.409	0.100
484.200	18.254	0.100
484.300	11.926	0.100
484.400	10.193	0.100
484.500	8.883	0.100
484.600	10.653	0.100
484.700	7.548	0.100
484.800	5.807	0.100
484.900	12.757	0.100
485.000	6.703	0.100
485.100	11.601	0.100
485.200	8.354	0.100
485.300	9.839	0.100
485.400	10.013	0.100
485.500	8.272	0.100
485.600	0.065	0.100
485.700	6.795	0.100
485.800	13.497	0.100
485.900	2.932	0.100
486.000	9.244	0.100
486.100	15.841	0.100
486.200	7.944	0.100
486.300	11.044	0.100
486.400	6.320	0.100
486.500	9.444	0.100
486.600	0.690	0.100
486.700	11.585	0.100
486.800	16.644	0.100
486.900	2.502	0.100
487.000	4.978	0.100
487.100	18.464	0.100
487.200	10.633	0.100
487.300	1.989	0.100
487.400	22.820	0.100
487.500	16.057	0.100
487.600	-4.409	0.100
487.700	14.652	0.100
487.800	9.651	0.100
487.900	2.787	0.100
488.000	5.886	0.100
488.100	-1.088	0.100
488.200	4.307	0.100
488.300	13.158	0.100
488.400	15.264	0.100
488.500	8.304	0.100
488.600	-0.651	0.100
488.700	10.892	0.100
488.800	3.506	0.100
488.900	10.403	0.100
489.000	20.510	0.100
489.100	9.675	0.100
489.200	5.524	0.100
489.300	7.238	0.100
489.400	17.237	0.100
489.500	5.034	0.100
489.600	18.361	0.100
489.700	3.029	0.100
489.800	7.497	0.100
489.900	13.103	0.100
490.000	17.530	0.100
490.100	12.282	0.100
490.200	-0.649	0.100
490.300	8.879	0.100
490.400	22.196	0.100
490.500	11.831	0.100
490.600	15.354	0.100
490.700	4.238	0.100
490.800	0.455	0.100
490.900	3.608	0.100
491.000	17.263	0.100
491.100	13.123	0.100
491.200	11.517	0.100
491.300	12.776	0.100
491.400	18.391	0.100
491.500	14.288	0.100
491.600	7.943	0.100
491.700	15.978	0.100
491.800	3.745	0.100
491.900	11.465	0.100
492.000	14.323	0.100
492.100	14.883	0.100
492.200	16.192	0.100
492.300	-3.027	0.100
492.400	10.582	0.100
492.500	24.141	0.100
492.600	13.993	0.100
492.700	17.508	0.100
492.800	14.795	0.100
492.900	7.218	0.100
493.000	19.067	0.100
493.100	3.816	0.100
493.200	4.711	0.100
493.300	4.965	0.100
493.400	15.708	0.100
493.500	10.495	0.100
493.600	4.390	0.100
493.700	16.359	0.100
493.800	11.549	0.100
493.900	14.564	0.100
494.000	19.369	0.100
494.100	18.067	0.100
494.200	16.091	0.100
494.300	10.932	0.100
494.400	13.456	0.100
494.500	8.829	0.100
494.600	7.112	0.100
494.700	8.629	0.100
494.800	7.579	0.100
494.900	3.925	0.100
495.000	11.328	0.100
495.100	14.764	0.100
495.200	11.848	0.100
495.300	1.690	0.100
495.400	18.871	0.100
495.500	1.248	0.100
495.600	12.262	0.100
495.700	16.317	0.100
495.800	21.382	0.100
495.900	10.779	0.100
496.000	10.003	0.100
496.100	3.016	0.100
496.200	16.052	0.100
496.300	10.974	0.100
496.400	8.301	0.100
496.500	13.140	0.100
496.600	19.093	0.100
496.700	7.840	0.100
496.800	12.675	0.100
496.900	12.061	0.100
497.000	7.528	0.100
497.100	13.032	0.100
497.200	19.130	0.100
497.300	13.712	0.100
497.400	4.574	0.100
497.500	5.433	0.100
497.600	7.737	0.100
497.700	13.163	0.100
497.800	11.857	0.100
497.900	17.399	0.100
498.000	17.717	0.100
498.100	10.450	0.100
498.200	14.073	0.100
498.300	19.236	0.100
498.400	8.664	0.100
498.500	21.321	0.100
498.600	10.147	0.100
498.700	13.235	0.100
498.800	14.268	0.100
498.900	1.453	0.100
499.000	12.821	0.100
499.100	8.033	0.100
499.200	-1.764	0.100
499.300	12.855	0.100
499.400	13.009	0.100
499.500	8.997	0.100
499.600	10.676	0.100
499.700	16.471	0.100
499.800	15.417	0.100
499.900	13.614	0.100
500.000	7.589	0.100
500.100	-1.199	0.100
500.200	16.796	0.100
500.300	14.362	0.100
500.400	8.136	0.100
500.500	11.314	0.100
500.600	16.828	0.100
500.700	9.611	0.100
500.800	16.946	0.100
500.900	13.300	0.100
501.000	17.069	0.100
501.100	5.559	0.100
501.200	6.600	0.100
501.300	18.690	0.100
501.400	16.392	0.100
501.500	19.126	0.100
501.600	17.679	0.100
501.700	15.087	0.100
501.800	15.522	0.100
501.900	9.464	0.100
502.000	14.718	0.100
502.100	13.589	0.100
502.200	12.311	0.100
502.300	12.565	0.100
502.400	9.705	0.100
502.500	22.396	0.100
502.600	8.627	0.100
502.700	13.349	0.100
502.800	0.460	0.100
502.900	10.575	0.100
503.000	13.634	0.100
503.100	3.933	0.100
503.200	14.765	0.100
503.300	-0.219	0.100
503.400	11.840	0.100
503.500	14.854	0.100
503.600	15.282	0.100
503.700	11.821	0.100
503.800	8.537	0.100
503.900	20.747	0.100
504.000	9.478	0.100
504.100	22.952	0.100
504.200	4.506	0.100
504.300	15.179	0.100
504.400	8.813	0.100
504.500	19.473	0.100
504.600	15.734	0.100
504.700	8.736	0.100
504.800	16.547	0.100
504.900	11.304	0.100
505.000	11.249	0.100
505.100	12.462	0.100
505.200	20.459	0.100
505.300	9.918	0.100
505.400	11.337	0.100
505.500	6.219	0.100
505.600	15.651	0.100
505.700	15.527	0.100
505.800	12.924	0.100
505.900	17.004	0.100
506.000	11.979	0.100
506.100	7.685	0.100
506.200	10.484	0.100
506.300	1.533	0.100
506.400	17.343	0.100
506.500	6.589	0.100
506.600	13.953	0.100
506.700	15.288	0.100
506.800	9.786	0.100
506.900	10.422	0.100
507.000	4.500	0.100
507.100	16.979	0.100
507.200	22.875	0.100
507.300	15.784	0.100
507.400	13.017	0.100
507.500	16.495	0.100
507.600	1.567	0.100
507.700	7.638	0.100
507.800	9.324	0.100
507.900	15.098	0.100
508.000	17.107	0.100
508.100	13.757	0.100
508.200	16.659	0.100
508.300	13.253	0.100
508.400	12.835	0.100
508.500	3.758	0.100
508.600	12.110	0.100
508.700	9.651	0.100
508.800	16.163	0.100
508.900	13.328	0.100
509.000	12.050	0.100
509.100	11.161	0.100
509.200	15.935	0.100
509.300	15.327	0.100
509.400	13.185	0.100
509.500	6.052	0.100
509.600	7.579	0.100
509.700	14.596	0.100
509.800	22.334	0.100
509.900	2.003	0.100
510.000	20.186	0.100
510.100	14.142	0.100
510.200	11.070	0.100
510.300	16.433	0.100
510.400	10.945	0.100
510.500	9.297	0.100
510.600	14.767	0.100
510.700	12.403	0.100
510.800	9.995	0.100
510.900	16.383	0.100
511.000	18.419	0.100
511.100	15.389	0.100
511.200	8.573	0.100
511.300	18.192	0.100
511.400	12.311	0.100
511.500	5.561	0.100
511.600	15.342	0.100
511.700	1.876	0.100
511.800	11.688	0.100
511.900	19.885	0.100
512.000	16.585	0.100
512.100	17.334	0.100
512.200	6.658	0.100
512.300	-2.573	0.100
512.400	20.605	0.100
512.500	10.007	0.100
512.600	9.693	0.100
512.700	11.880	0.100
512.800	21.484	0.100
512.900	12.430	0.100
513.000	11.857	0.100
513.100	17.685	0.100
513.200	6.350	0.100
513.300	7.644	0.100
513.400	13.807	0.100
513.500	20.179	0.100
513.600	17.076	0.100
513.700	9.341	0.100
513.800	11.870	0.100
513.900	6.545	0.100
514.000	17.992	0.100
514.100	12.557	0.100
514.200	24.604	0.100
514.300	13.671	0.100
514.400	1.097	0.100
514.500	2.530	0.100
514.600	5.138	0.100
514.700	12.617	0.100
514.800	12.280	0.100
514.900	18.314	0.100
515.000	20.180	0.100
515.100	8.464	0.100
515.200	15.459	0.100
515.300	16.112	0.100
515.400	14.289	0.100
515.500	9.684	0.100
515.600	11.343	0.100
515.700	13.704	0.100
515.800	20.010	0.100
515.900	2.944	0.100
516.000	13.151	0.100
516.100	18.447	0.100
516.200	18.657	0.100
516.300	10.687	0.100
516.400	9.478	0.100
516.500	25.299	0.100
516.600	9.668	0.100
516.700	18.546	0.100
516.800	13.117	0.100
516.900	6.546	0.100
517.000	5.633	0.100
517.100	13.645	0.100
517.200	10.282	0.100
517.300	18.361	0.100
517.400	16.228	0.100
517.500	20.400	0.100
517.600	11.848	0.100
517.700	9.978	0.100
517.800	19.369	0.100
517.900	26.327	0.100
518.000	13.916	0.100
518.100	15.711	0.100
518.200	6.920	0.100
518.300	24.233	0.100
518.400	8.069	0.100
518.500	18.413	0.100
518.600	5.579	0.100
518.700	18.640	0.100
518.800	2.289	0.100
518.900	15.569	0.100
519.000	16.161	0.100
519.100	5.856	0.100
519.200	19.342	0.100
519.300	10.728	0.100
519.400	13.056	0.100
519.500	4.579	0.100
519.600	10.175	0.100
519.700	19.977	0.100
519.800	18.463	0.100
519.900	0.775	0.100
520.000	9.864	0.100
520.100	3.784	0.100
520.200	9.943	0.100
520.300	18.450	0.100
520.400	10.015	0.100
520.500	14.330	0.100
520.600	9.079	0.100
520.700	12.387	0.100
520.800	12.811	0.100
520.900	24.525	0.100
521.000	26.038	0.100
521.100	10.938	0.100
521.200	12.045	0.100
521.300	12.001	0.100
521.400	9.574	0.100
521.500	10.270	0.100
521.600	14.468	0.100
521.700	15.792	0.100
521.800	11.221	0.100
521.900	14.497	0.100
522.000	5.535	0.100
522.100	11.611	0.100
522.200	12.951	0.100
522.300	14.392	0.100
522.400	28.162	0.100
522.500	7.004	0.100
522.600	13.825	0.100
522.700	14.955	0.100
522.800	16.076	0.100
522.900	12.985	0.100
523.000	4.987	0.100
523.100	12.118	0.100
523.200	11.939	0.100
523.300	13.151	0.100
523.400	11.228	0.100
523.500	10.560	0.100
523.600	8.162	0.100
523.700	15.436	0.100
523.800	15.224	0.100
523.900	17.821	0.100
524.000	11.246	0.100
524.100	21.776	0.100
524.200	15.479	0.100
524.300	13.059	0.100
524.400	1.227	0.100
524.500	19.482	0.100
524.600	25.513	0.100
524.700	16.319	0.100
524.800	12.459	0.100
524.900	10.033	0.100
525.000	17.266	0.100
525.100	20.029	0.100
525.200	22.856	0.100
525.300	8.093	0.100
525.400	8.860	0.100
525.500	12.250	0.100
525.600	14.166	0.100
525.700	12.345	0.100
525.800	19.923	0.100
525.900	16.409	0.100
526.000	16.130	0.100
526.100	13.280	0.100
526.200	0.855	0.100
526.300	18.878	0.100
526.400	4.011	0.100
526.500	16.182	0.100
526.600	14.419	0.100
526.700	10.331	0.100
526.800	16.241	0.100
526.900	17.435	0.100
527.000	28.170	0.100
527.100	18.627	0.100
527.200	9.160	0.100
527.300	21.950	0.100
527.400	2.251	0.100
527.500	12.071	0.100
527.600	10.755	0.100
527.700	3.616	0.100
527.800	11.126	0.100
527.900	23.612	0.100
528.000	12.304	0.100
528.100	21.264	0.100
528.200	8.644	0.100
528.300	7.546	0.100
528.400	14.882	0.100
528.500	12.986	0.100
528.600	10.848	0.100
528.700	9.961	0.100
528.800	16.799	0.100
528.900	18.862	0.100
529.000	13.515	0.100
529.100	14.296	0.100
529.200	13.452	0.100
529.300	18.676	0.100
529.400	10.583	0.100
529.500	1.801	0.100
529.600	24.543	0.100
529.700	19.501	0.100
529.800	15.416	0.100
529.900	9.186	0.100
530.000	11.463	0.100
530.100	3.078	0.100
530.200	13.178	0.100
530.300	13.008	0.100
530.400	19.171	0.100
530.500	24.365	0.100
530.600	16.941	0.100
530.700	19.943	0.100
530.800	16.474	0.100
530.900	4.800	0.100
531.000	15.685	0.100
531.100	16.308	0.100
531.200	3.001	0.100
531.300	16.619	0.100
531.400	17.485	0.100
531.500	17.902	0.100
531.600	9.793	0.100
531.700	22.451	0.100
531.800	12.944	0.100
531.900	16.605	0.100
532.000	13.661	0.100
532.100	15.461	0.100
532.200	18.757	0.100
532.300	1.408	0.100
532.400	7.411	0.100
532.500	10.314	0.100
532.600	11.758	0.100
532.700	21.261	0.100
532.800	13.391	0.100
532.900	14.144	0.100
533.000	13.426	0.100
533.100	6.708	0.100
533.200	24.440	0.100
533.300	12.577	0.100
533.400	24.263	0.100
533.500	13.935	0.100
533.600	12.123	0.100
533.700	15.368	0.100
533.800	14.353	0.100
533.900	16.346	0.100
534.000	19.613	0.100
534.100	10.147	0.100
534.200	7.002	0.100
534.300	4.979	0.100
534.400	13.712	0.100
534.500	22.592	0.100
534.600	18.288	0.100
534.700	19.687	0.100
534.800	8.993	0.100
534.900	19.356	0.100
535.000	5.874	0.100
535.100	28.065	0.100
535.200	20.226	0.100
535.300	14.716	0.100
535.400	12.746	0.100
535.500	10.756	0.100
535.600	10.862	0.100
535.700	13.528	0.100
535.800	20.721	0.100
535.900	16.479	0.100
536.000	17.496	0.100
536.100	2.039	0.100
536.200	13.814	0.100
536.300	11.238	0.100
536.400	13.184	0.100
536.500	11.151	0.100
536.600	3.979	0.100
536.700	19.680	0.100
536.800	14.817	0.100
536.900	14.188	0.100
537.000	24.141	0.100
537.100	17.445	0.100
537.200	11.977	0.100
537.300	9.017	0.100
537.400	9.136	0.100
537.500	9.716	0.100
537.600	7.784	0.100
537.700	9.006	0.100
537.800	11.676	0.100
537.900	18.057	0.100
538.000	18.758	0.100
538.100	16.164	0.100
538.200	3.259	0.100
538.300	17.977	0.100
538.400	10.813	0.100
538.500	11.186	0.100
538.600	22.522	0.100
538.700	15.001	0.100
538.800	21.027	0.100
538.900	12.341	0.100
539.000	11.800	0.100
539.100	11.787	0.100
539.200	10.323	0.100
539.300	16.206	0.100
539.400	12.141	0.100
539.500	13.153	0.100
539.600	12.773	0.100
539.700	16.307	0.100
539.800	14.679	0.100
539.900	20.539	0.100
540.000	9.861	0.100
540.100	7.912	0.100
540.200	20.817	0.100
540.300	5.129	0.100
540.400	4.848	0.100
540.500	11.553	0.100
540.600	16.948	0.100
540.700	15.184	0.100
540.800	12.585	0.100
540.900	13.117	0.100
541.000	12.334	0.100
541.100	8.652	0.100
541.200	14.781	0.100
541.300	8.934	0.100
541.400	13.782	0.100
541.500	10.537	0.100
541.600	10.431	0.100
541.700	16.142	0.100
541.800	10.862	0.100
541.900	6.104	0.100
542.000	9.012	0.100
542.100	23.107	0.100
542.200	15.444	0.100
542.300	15.217	0.100
542.400	6.949	0.100
542.500	9.380	0.100
542.600	18.756	0.100
542.700	12.229	0.100
542.800	13.175	0.100
542.900	7.080	0.100
543.000	17.296	0.100
543.100	8.868	0.100
543.200	19.891	0.100
543.300	18.184	0.100
543.400	5.297	0.100
543.500	14.730	0.100
543.600	18.448	0.100
543.700	11.724	0.100
543.800	14.299	0.100
543.900	11.592	0.100
544.000	2.893	0.100
544.100	8.011	0.100
544.200	25.794	0.100
544.300	22.350	0.100
544.400	8.294	0.100
544.500	7.884	0.100
544.600	13.162	0.100
544.700	19.115	0.100
544.800	8.665	0.100
544.900	11.327	0.100
545.000	11.463	0.100
545.100	4.802	0.100
545.200	4.735	0.100
545.300	12.680	0.100
545.400	23.467	0.100
545.500	2.069	0.100
545.600	15.061	0.100
545.700	20.626	0.100
545.800	15.648	0.100
545.900	11.344	0.100
546.000	17.218	0.100
546.100	3.905	0.100
546.200	13.760	0.100
546.300	22.675	0.100
546.400	3.716	0.100
546.500	18.776	0.100
546.600	17.182	0.100
546.700	13.329	0.100
546.800	7.815	0.100
546.900	-4.154	0.100
547.000	11.998	0.100
547.100	17.688	0.100
547.200	16.711	0.100
547.300	9.970	0.100
547.400	10.782	0.100
547.500	6.026	0.100
547.600	12.303	0.100
547.700	11.859	0.100
547.800	14.222	0.100
547.900	7.445	0.100
548.000	2.608	0.100
548.100	12.901	0.100
548.200	9.361	0.100
548.300	3.449	0.100
548.400	19.274	0.100
548.500	4.775	0.100
548.600	18.303	0.100
548.700	15.973	0.100
548.800	11.990	0.100
548.900	2.985	0.100
549.000	10.735	0.100
549.100	9.115	0.100
549.200	11.890	0.100
549.300	14.805	0.100
549.400	2.024	0.100
549.500	10.644	0.100
549.600	5.726	0.100
549.700	3.852	0.100
549.800	12.602	0.100
549.900	10.970	0.100
550.000	21.599	0.100
550.100	20.400	0.100
550.200	2.422	0.100
550.300	12.912	0.100
550.400	8.627	0.100
550.500	1.785	0.100
550.600	23.568	0.100
550.700	8.056	0.100
550.800	13.618	0.100
550.900	20.197	0.100
551.000	-2.302	0.100
551.100	10.863	0.100
551.200	15.141	0.100
551.300	9.716	0.100
551.400	7.522	0.100
551.500	6.433	0.100
551.600	18.705	0.100
551.700	6.099	0.100
551.800	4.166	0.100
551.900	7.852	0.100
552.000	13.459	0.100
552.100	10.073	0.100
552.200	13.546	0.100
552.300	12.115	0.100
552.400	9.761	0.100
552.500	9.147	0.100
552.600	11.264	0.100
552.700	8.903	0.100
552.800	11.738	0.100
552.900	3.104	0.100
553.000	17.182	0.100
553.100	18.408	0.100
553.200	12.711	0.100
553.300	8.762	0.100
553.400	7.908	0.100
553.500	-0.693	0.100
553.600	9.175	0.100
553.700	12.559	0.100
553.800	3.406	0.100
553.900	1.896	0.100
554.000	15.673	0.100
554.100	15.169	0.100
554.200	15.900	0.100
554.300	7.152	0.100
554.400	3.116	0.100
554.500	10.858	0.100
554.600	12.511	0.100
554.700	1.317	0.100
554.800	12.635	0.100
554.900	1.207	0.100
555.000	12.568	0.100
555.100	8.510	0.100
555.200	6.748	0.100
555.300	7.163	0.100
555.400	12.578	0.100
555.500	19.550	0.100
555.600	17.294	0.100
555.700	13.269	0.100
555.800	4.658	0.100
555.900	1.361	0.100
556.000	8.891	0.100
556.100	5.226	0.100
556.200	14.635	0.100
556.300	12.588	0.100
556.400	14.591	0.100
556.500	12.817	0.100
556.600	14.710	0.100
556.700	-6.049	0.100
556.800	11.115	0.100
556.900	17.650	0.100
557.000	6.386	0.100
557.100	11.495	0.100
557.200	7.424	0.100
557.300	9.552	0.100
557.400	13.180	0.100
557.500	4.155	0.100
557.600	8.523	0.100
557.700	21.497	0.100
557.800	-4.559	0.100
557.900	4.020	0.100
558.000	8.128	0.100
558.100	3.755	0.100
558.200	12.756	0.100
558.300	5.961	0.100
558.400	8.002	0.100
558.500	17.662	0.100
558.600	6.835	0.100
558.700	12.316	0.100
558.800	-3.941	0.100
558.900	12.946	0.100
559.000	14.365	0.100
559.100	13.431	0.100
559.200	1.778	0.100
559.300	7.895	0.100
559.400	15.029	0.100
559.500	6.012	0.100
559.600	9.872	0.100
559.700	9.432	0.100
559.800	14.021	0.100
559.900	7.445	0.100
560.000	9.588	0.100
560.100	8.204	0.100
560.200	4.499	0.100
560.300	18.758	0.100
560.400	16.459	0.100
560.500	-1.381	0.100
560.600	15.142	0.100
560.700	11.950	0.100
560.800	9.280	0.100
560.900	8.446	0.100
561.000	16.445	0.100
561.100	6.594	0.100
561.200	3.631	0.100
561.300	4.359	0.100
561.400	16.155	0.100
561.500	5.976	0.100
561.600	2.378	0.100
561.700	9.454	0.100
561.800	3.546	0.100
561.900	1.779	0.100
562.000	12.724	0.100
562.100	3.820	0.100
562.200	-1.425	0.100
562.300	6.523	0.100
562.400	11.044	0.100
562.500	12.494	0.100
562.600	13.977	0.100
562.700	9.553	0.100
562.800	16.174	0.100
562.900	-1.094	0.100
563.000	2.835	0.100
563.100	8.234	0.100
563.200	3.340	0.100
563.300	10.505	0.100
563.400	12.356	0.100
563.500	10.651	0.100
563.600	10.841	0.100
563.700	6.207	0.100
563.800	9.282	0.100
563.900	-2.184	0.100
564.000	15.581	0.100
564.100	12.144	0.100
564.200	-1.060	0.100
564.300	-0.412	0.100
564.400	1.180	0.100
564.500	9.790	0.100
564.600	15.719	0.100
564.700	12.969	0.100
564.800	12.060	0.100
564.900	6.164	0.100
565.000	6.929	0.100
565.100	2.005	0.100
565.200	1.181	0.100
565.300	18.807	0.100
565.400	9.964	0.100
565.500	18.402	0.100
565.600	10.334	0.100
565.700	3.585	0.100
565.800	7.372	0.100
565.900	0.027	0.100
566.000	5.063	0.100
566.100	12.612	0.100
566.200	-2.744	0.100
566.300	17.030	0.100
566.400	8.902	0.100
566.500	19.061	0.100
566.600	7.671	0.100
566.700	3.581	0.100
566.800	8.209	0.100
566.900	0.798	0.100
567.000	14.335	0.100
567.100	8.642	0.100
567.200	-0.846	0.100
567.300	11.020	0.100
567.400	5.787	0.100
567.500	10.037	0.100
567.600	2.442	0.100
567.700	6.666	0.100
567.800	-2.909	0.100
567.900	0.566	0.100
568.000	14.461	0.100
568.100	9.676	0.100
568.200	4.629	0.100
568.300	7.075	0.100
568.400	0.670	0.100
568.500	13.216	0.100
568.600	7.139	0.100
568.700	11.704	0.100
568.800	7.448	0.100
568.900	14.091	0.100
569.000	18.721	0.100
569.100	9.362	0.100
569.200	1.381	0.100
569.300	7.888	0.100
569.400	10.126	0.100
569.500	13.107	0.100
569.600	9.699	0.100
569.700	8.950	0.100
569.800	13.773	0.100
569.900	5.789	0.100
570.000	1.449	0.100
570.100	21.274	0.100
570.200	12.613	0.100
570.300	11.636	0.100
570.400	19.667	0.100
570.500	9.254	0.100
570.600	-0.772	0.100
570.700	11.950	0.100
570.800	4.566	0.100
570.900	1.787	0.100
571.000	11.262	0.100
571.100	3.751	0.100
571.200	13.637	0.100
571.300	6.866	0.100
571.400	-1.474	0.100
571.500	3.441	0.100
571.600	-0.448	0.100
571.700	12.286	0.100
571.800	-0.212	0.100
571.900	9.209	0.100
572.000	6.563	0.100
572.100	10.368	0.100
572.200	5.763	0.100
572.300	5.216	0.100
572.400	13.541	0.100
572.500	6.917	0.100
572.600	-3.726	0.100
572.700	4.994	0.100
572.800	2.488	0.100
572.900	14.573	0.100
573.000	11.364	0.100
573.100	2.875	0.100
573.200	4.204	0.100
573.300	5.694	0.100
573.400	8.912	0.100
573.500	13.260	0.100
573.600	16.195	0.100
573.700	-8.116	0.100
573.800	-13.345	0.100
573.900	5.057	0.100
574.000	4.564	0.100
574.100	2.296	0.100
574.200	15.793	0.100
574.300	5.173	0.100
574.400	5.465	0.100
574.500	3.019	0.100
574.600	4.324	0.100
574.700	5.960	0.100
574.800	-1.273	0.100
574.900	9.937	0.100
575.000	13.363	0.100
575.100	11.035	0.100
575.200	16.159	0.100
575.300	7.894	0.100
575.400	19.087	0.100
575.500	10.420	0.100
575.600	5.899	0.100
575.700	-8.548	0.100
575.800	6.453	0.100
575.900	9.387	0.100
576.000	19.220	0.100
576.100	12.407	0.100
576.200	-1.756	0.100
576.300	-8.291	0.100
576.400	13.842	0.100
576.500	13.546	0.100
576.600	1.350	0.100
576.700	-5.714	0.100
576.800	7.706	0.100
576.900	9.648	0.100
577.000	10.316	0.100
577.100	12.438	0.100
577.200	-0.355	0.100
577.300	11.729	0.100
577.400	-0.625	0.100
577.500	10.931	0.100
577.600	6.773	0.100
577.700	2.940	0.100
577.800	3.862	0.100
577.900	4.924	0.100
578.000	7.772	0.100
578.100	5.586	0.100
578.200	7.745	0.100
578.300	9.404	0.100
578.400	1.798	0.100
578.500	9.904	0.100
578.600	1.985	0.100
578.700	4.054	0.100
578.800	14.961	0.100
578.900	-3.241	0.100
579.000	8.361	0.100
579.100	14.238	0.100
579.200	-1.866	0.100
579.300	-5.948	0.100
579.400	2.955	0.100
579.500	11.447	0.100
579.600	6.905	0.100
579.700	19.697	0.100
579.800	13.382	0.100
579.900	3.080	0.100
580.000	0.645	0.100
580.100	10.905	0.100
580.200	19.063	0.100
580.300	4.339	0.100
580.400	-4.912	0.100
580.500	5.471	0.100
580.600	4.128	0.100
580.700	6.932	0.100
580.800	12.613	0.100
580.900	7.361	0.100
581.000	11.565	0.100
581.100	15.022	0.100
581.200	2.688	0.100
581.300	13.574	0.100
581.400	1.202	0.100
581.500	8.374	0.100
581.600	-7.832	0.100
581.700	13.102	0.100
581.800	1.821	0.100
581.900	12.400	0.100
582.000	7.232	0.100
582.100	6.334	0.100
582.200	8.377	0.100
582.300	0.504	0.100
582.400	5.952	0.100
582.500	7.198	0.100
582.600	13.892	0.100
582.700	10.678	0.100
582.800	9.695	0.100
582.900	1.795	0.100
583.000	-0.321	0.100
583.100	2.839	0.100
583.200	-0.280	0.100
583.300	10.856	0.100
583.400	21.214	0.100
583.500	23.206	0.100
583.600	-4.346	0.100
583.700	4.361	0.100
583.800	-0.015	0.100
583.900	8.018	0.100
584.000	6.390	0.100
584.100	-4.879	0.100
584.200	10.251	0.100
584.300	-5.775	0.100
584.400	1.101	0.100
584.500	9.653	0.100
584.600	5.585	0.100
584.700	14.901	0.100
584.800	5.190	0.100
584.900	13.889	0.100
585.000	-0.710	0.100
585.100	2.792	0.100
585.200	3.805	0.100
585.300	-2.806	0.100
585.400	12.989	0.100
585.500	4.525	0.100
585.600	8.555	0.100
585.700	13.754	0.100
585.800	13.388	0.100
585.900	14.512	0.100
586.000	9.628	0.100
586.100	-2.267	0.100
586.200	6.100	0.100
586.300	9.334	0.100
586.400	19.087	0.100
586.500	-7.302	0.100
586.600	7.982	0.100
586.700	12.386	0.100
586.800	10.015	0.100
586.900	5.341	0.100
587.000	6.584	0.100
587.100	9.920	0.100
587.200	4.731	0.100
587.300	5.115	0.100
587.400	6.239	0.100
587.500	6.340	0.100
587.600	11.993	0.100
587.700	-0.414	0.100
587.800	2.962	0.100
587.900	-1.175	0.100
588.000	-0.470	0.100
588.100	3.510	0.100
588.200	12.745	0.100
588.300	11.472	0.100
588.400	6.854	0.100
588.500	-3.121	0.100
588.600	0.031	0.100
588.700	9.778	0.100
588.800	5.073	0.100
588.900	8.900	0.100
589.000	11.169	0.100
589.100	3.191	0.100
589.200	6.087	0.100
589.300	13.500	0.100
589.400	-0.670	0.100
589.500	-1.156	0.100
589.600	1.157	0.100
589.700	16.663	0.100
589.800	1.958	0.100
589.900	7.904	0.100
590.000	12.369	0.100
590.100	5.808	0.100
590.200	4.287	0.100
590.300	1.763	0.100
590.400	6.175	0.100
590.500	12.671	0.100
590.600	2.335	0.100
590.700	15.338	0.100
590.800	6.383	0.100
590.900	3.728	0.100
591.000	5.451	0.100
591.100	12.036	0.100
591.200	10.275	0.100
591.300	10.932	0.100
591.400	11.677	0.100
591.500	6.440	0.100
591.600	12.591	0.100
591.700	6.651	0.100
591.800	-4.830	0.100
591.900	6.696	0.100
592.000	-0.189	0.100
592.100	3.871	0.100
592.200	-2.263	0.100
592.300	8.126	0.100
592.400	14.605	0.100
592.500	2.060	0.100
592.600	0.720	0.100
592.700	3.808	0.100
592.800	7.877	0.100
592.900	3.568	0.100
593.000	-2.231	0.100
593.100	10.460	0.100
593.200	26.029	0.100
593.300	13.027	0.100
593.400	2.916	0.100
593.500	3.648	0.100
593.600	-5.610	0.100
593.700	2.485	0.100
593.800	6.279	0.100
593.900	10.097	0.100
594.000	7.968	0.100
594.100	-1.279	0.100
594.200	-5.570	0.100
594.300	3.461	0.100
594.400	20.115	0.100
594.500	10.173	0.100
594.600	-4.040	0.100
594.700	-1.630	0.100
594.800	3.494	0.100
594.900	5.729	0.100
595.000	11.247	0.100
595.100	6.558	0.100
595.200	10.819	0.100
595.300	-1.774	0.100
595.400	4.014	0.100
595.500	4.948	0.100
595.600	8.510	0.100
595.700	3.940	0.100
595.800	10.011	0.100
595.900	9.924	0.100
596.000	5.695	0.100
596.100	3.196	0.100
596.200	3.537	0.100
596.300	10.776	0.100
596.400	7.378	0.100
596.500	6.243	0.100
596.600	11.602	0.100
596.700	4.489	0.100
596.800	2.967	0.100
596.900	7.869	0.100
597.000	-2.676	0.100
597.100	9.228	0.100
597.200	10.867	0.100
597.300	6.007	0.100
597.400	4.814	0.100
597.500	4.251	0.100
597.600	10.482	0.100
597.700	-0.991	0.100
597.800	1.968	0.100
597.900	13.527	0.100
598.000	8.573	0.100
598.100	6.127	0.100
598.200	10.399	0.100
598.300	-3.437	0.100
598.400	7.816	0.100
598.500	-3.048	0.100
598.600	-2.327	0.100
598.700	8.277	0.100
598.800	4.508	0.100
598.900	14.303	0.100
599.000	13.646	0.100
599.100	15.444	0.100
599.200	1.688	0.100
599.300	4.097	0.100
599.400	7.054	0.100
599.500	12.085	0.100
599.600	-4.532	0.100
599.700	-1.474	0.100
599.800	-0.062	0.100
599.900	9.431	0.100
600.000	14.780	0.100
600.100	9.918	0.100
600.200	3.236	0.100
600.300	8.563	0.100
600.400	0.026	0.100
600.500	0.243	0.100
600.600	6.319	0.100
600.700	7.040	0.100
600.800	4.063	0.100
600.900	7.685	0.100
601.000	1.146	0.100
601.100	8.732	0.100
601.200	4.044	0.100
601.300	0.573	0.100
601.400	3.574	0.100
601.500	5.761	0.100
601.600	-2.937	0.100
601.700	9.663	0.100
601.800	1.765	0.100
601.900	2.862	0.100
602.000	4.536	0.100
602.100	11.122	0.100
602.200	11.164	0.100
602.300	6.310	0.100
602.400	3.071	0.100
602.500	6.645	0.100
602.600	-0.830	0.100
602.700	0.443	0.100
602.800	4.685	0.100
602.900	11.652	0.100
603.000	5.675	0.100
603.100	16.351	0.100
603.200	-4.602	0.100
603.300	6.157	0.100
603.400	0.599	0.100
603.500	-6.556	0.100
603.600	-0.809	0.100
603.700	15.970	0.100
603.800	15.972	0.100
603.900	5.062	0.100
604.000	-1.059	0.100
604.100	5.516	0.100
604.200	8.475	0.100
604.300	8.490	0.100
604.400	19.684	0.100
604.500	7.085	0.100
604.600	-0.820	0.100
604.700	-4.536	0.100
604.800	4.123	0.100
604.900	0.102	0.100
605.000	13.783	0.100
605.100	13.053	0.100
605.200	-5.327	0.100
605.300	-2.158	0.100
605.400	1.502	0.100
605.500	10.409	0.100
605.600	9.221	0.100
605.700	2.844	0.100
605.800	5.050	0.100
605.900	11.048	0.100
606.000	-4.447	0.100
606.100	3.540	0.100
606.200	2.264	0.100
606.300	-1.287	0.100
606.400	5.756	0.100
606.500	12.589	0.100
606.600	3.313	0.100
606.700	-3.526	0.100
606.800	14.624	0.100
606.900	7.484	0.100
607.000	5.908	0.100
607.100	9.746	0.100
607.200	-5.014	0.100
607.300	1.866	0.100
607.400	2.366	0.100
607.500	3.845	0.100
607.600	4.579	0.100
607.700	10.665	0.100
607.800	5.601	0.100
607.900	-6.435	0.100
608.000	7.413	0.100
608.100	13.599	0.100
608.200	4.877	0.100
608.300	5.285	0.100
608.400	-10.253	0.100
608.500	4.126	0.100
608.600	1.084	0.100
608.700	12.351	0.100
608.800	12.759	0.100
608.900	-0.973	0.100
609.000	15.401	0.100
609.100	14.387	0.100
609.200	5.615	0.100
609.300	3.086	0.100
609.400	-4.363	0.100
609.500	1.283	0.100
609.600	12.758	0.100
609.700	11.853	0.100
609.800	5.499	0.100
609.900	4.375	0.100
610.000	2.873	0.100
610.100	12.848	0.100
610.200	5.143	0.100
610.300	8.417	0.100
610.400	-8.891	0.100
610.500	2.890	0.100
610.600	7.344	0.100
610.700	4.063	0.100
610.800	-4.814	0.100
610.900	10.656	0.100
611.000	7.633	0.100
611.100	6.917	0.100
611.200	4.899	0.100
611.300	14.263	0.100
611.400	5.789	0.100
611.500	5.437	0.100
611.600	-8.162	0.100
611.700	8.649	0.100
611.800	11.648	0.100
611.900	4.726	0.100
612.000	7.875	0.100
612.100	15.836	0.100
612.200	11.643	0.100
612.300	2.926	0.100
612.400	0.777	0.100
612.500	5.829	0.100
612.600	2.961	0.100
612.700	4.202	0.100
612.800	4.069	0.100
612.900	2.630	0.100
613.000	14.869	0.100
613.100	6.313	0.100
613.200	-3.357	0.100
613.300	3.624	0.100
613.400	4.010	0.100
613.500	7.316	0.100
613.600	13.332	0.100
613.700	1.880	0.100
613.800	3.827	0.100
613.900	2.348	0.100
614.000	5.502	0.100
614.100	7.223	0.100
614.200	7.130	0.100
614.300	0.428	0.100
614.400	-4.885	0.100
614.500	5.710	0.100
614.600	5.774	0.100
614.700	13.430	0.100
614.800	5.656	0.100
614.900	12.783	0.100
615.000	-14.371	0.100
615.100	1.462	0.100
615.200	8.611	0.100
615.300	5.891	0.100
615.400	4.991	0.100
615.500	3.506	0.100
615.600	-1.957	0.100
615.700	18.004	0.100
615.800	2.988	0.100
615.900	2.152	0.100
616.000	12.700	0.100
616.100	-3.353	0.100
616.200	10.029	0.100
616.300	8.600	0.100
616.400	-0.871	0.100
616.500	-4.084	0.100
616.600	3.905	0.100
616.700	17.887	0.100
616.800	14.348	0.100
616.900	13.028	0.100
617.000	5.668	0.100
617.100	0.613	0.100
617.200	3.045	0.100
617.300	11.254	0.100
617.400	1.012	0.100
617.500	1.378	0.100
617.600	12.046	0.100
617.700	5.659	0.100
617.800	1.754	0.100
617.900	1.435	0.100
618.000	8.089	0.100
618.100	-0.876	0.100
618.200	14.486	0.100
618.300	5.609	0.100
618.400	-1.617	0.100
618.500	0.596	0.100
618.600	8.487	0.100
618.700	9.471	0.100
618.800	4.156	0.100
618.900	16.174	0.100
619.000	6.377	0.100
619.100	5.455	0.100
619.200	12.173	0.100
619.300	4.799	0.100
619.400	4.555	0.100
619.500	-1.993	0.100
619.600	1.996	0.100
619.700	23.112	0.100
619.800	4.103	0.100
619.900	5.750	0.100
620.000	7.800	0.100
620.100	4.087	0.100
620.200	12.132	0.100
620.300	10.431	0.100
620.400	-1.157	0.100
620.500	12.199	0.100
620.600	6.018	0.100
620.700	5.283	0.100
620.800	7.918	0.100
620.900	-8.090	0.100
621.000	2.053	0.100
621.100	2.252	0.100
621.200	6.143	0.100
621.300	0.968	0.100
621.400	4.697	0.100
621.500	0.189	0.100
621.600	2.944	0.100
621.700	16.008	0.100
621.800	5.167	0.100
621.900	13.724	0.100
622.000	0.753	0.100
622.100	8.008	0.100
622.200	8.290	0.100
622.300	10.557	0.100
622.400	8.034	0.100
622.500	1.551	0.100
622.600	11.562	0.100
622.700	4.614	0.100
622.800	-4.751	0.100
622.900	7.873	0.100
623.000	5.904	0.100
623.100	13.729	0.100
623.200	-0.154	0.100
623.300	8.494	0.100
623.400	2.440	0.100
623.500	1.229	0.100
623.600	2.051	0.100
623.700	7.530	0.100
623.800	3.826	0.100
623.900	8.927	0.100
624.000	12.113	0.100
624.100	-5.875	0.100
624.200	5.497	0.100
624.300	5.084	0.100
624.400	-1.740	0.100
624.500	12.993	0.100
624.600	9.090	0.100
624.700	10.163	0.100
624.800	-3.757	0.100
624.900	6.783	0.100
625.000	9.780	0.100
625.100	3.265	0.100
625.200	3.941	0.100
625.300	6.081	0.100
625.400	8.240	0.100
625.500	12.764	0.100
625.600	3.669	0.100
625.700	-1.037	0.100
625.800	3.027	0.100
625.900	8.282	0.100
626.000	11.595	0.100
626.100	16.726	0.100
626.200	13.080	0.100
626.300	-4.481	0.100
626.400	2.349	0.100
626.500	12.392	0.100
626.600	1.568	0.100
626.700	-3.918	0.100
626.800	2.690	0.100
626.900	3.801	0.100
627.000	9.757	0.100
627.100	6.990	0.100
627.200	1.959	0.100
627.300	14.733	0.100
627.400	11.429	0.100
627.500	8.735	0.100
627.600	-0.840	0.100
627.700	14.497	0.100
627.800	7.924	0.100
627.900	11.071	0.100
628.000	4.245	0.100
628.100	1.572	0.100
628.200	4.205	0.100
628.300	-3.337	0.100
628.400	3.994	0.100
628.500	2.496	0.100
628.600	19.241	0.100
628.700	-1.295	0.100
628.800	12.622	0.100
628.900	15.535	0.100
629.000	7.895	0.100
629.100	12.004	0.100
629.200	15.656	0.100
629.300	-1.919	0.100
629.400	22.222	0.100
629.500	-0.030	0.100
629.600	12.064	0.100
629.700	12.773	0.100
629.800	6.254	0.100
629.900	16.345	0.100
630.000	10.430	0.100
630.100	7.303	0.100
630.200	20.942	0.100
630.300	2.638	0.100
630.400	5.293	0.100
630.500	13.315	0.100
630.600	25.863	0.100
630.700	8.999	0.100
630.800	8.755	0.100
630.900	11.087	0.100
631.000	20.956	0.100
631.100	18.294	0.100
631.200	19.306	0.100
631.300	10.158	0.100
631.400	8.612	0.100
631.500	15.462	0.100
631.600	10.967	0.100
631.700	15.447	0.100
631.800	6.564	0.100
631.900	13.833	0.100
632.000	-0.388	0.100
632.100	23.243	0.100
632.200	10.648	0.100
632.300	18.137	0.100
632.400	15.617	0.100
632.500	24.557	0.100
632.600	17.034	0.100
632.700	16.564	0.100
632.800	12.787	0.100
632.900	13.011	0.100
633.000	23.846	0.100
633.100	18.292	0.100
633.200	16.637	0.100
633.300	5.831	0.100
633.400	15.517	0.100
633.500	13.292	0.100
633.600	7.851	0.100
633.700	13.908	0.100
633.800	7.649	0.100
633.900	13.575	0.100
634.000	17.568	0.100
634.100	21.117	0.100
634.200	23.973	0.100
634.300	16.389	0.100
634.400	21.012	0.100
634.500	20.922	0.100
634.600	22.363	0.100
634.700	18.584	0.100
634.800	22.728	0.100
634.900	16.432	0.100
635.000	15.271	0.100
635.100	12.358	0.100
635.200	9.357	0.100
635.300	6.522	0.100
635.400	20.426	0.100
635.500	21.870	0.100
635.600	14.348	0.100
635.700	20.957	0.100
635.800	16.082	0.100
635.900	26.808	0.100
636.000	17.877	0.100
636.100	20.059	0.100
636.200	19.074	0.100
636.300	17.900	0.100
636.400	20.385	0.100
636.500	21.719	0.100
636.600	21.755	0.100
636.700	17.465	0.100
636.800	3.147	0.100
636.900	15.448	0.100
637.000	24.911	0.100
637.100	18.628	0.100
637.200	30.952	0.100
637.300	19.799	0.100
637.400	22.817	0.100
637.500	25.579	0.100
637.600	7.110	0.100
637.700	18.616	0.100
637.800	14.380	0.100
637.900	30.884	0.100
638.000	23.221	0.100
638.100	25.729	0.100
638.200	19.606	0.100
638.300	15.388	0.100
638.400	22.031	0.100
638.500	22.692	0.100
638.600	21.884	0.100
638.700	23.866	0.100
638.800	22.055	0.100
638.900	8.249	0.100
639.000	15.203	0.100
639.100	20.925	0.100
639.200	24.034	0.100
639.300	21.958	0.100
639.400	15.276	0.100
639.500	13.915	0.100
639.600	14.349	0.100
639.700	25.104	0.100
639.800	18.257	0.100
639.900	10.226	0.100
640.000	22.885	0.100
640.100	9.137	0.100
640.200	22.330	0.100
640.300	17.581	0.100
640.400	15.598	0.100
640.500	17.183	0.100
640.600	18.566	0.100
640.700	25.890	0.100
640.800	12.971	0.100
640.900	18.272	0.100
641.000	14.910	0.100
641.100	24.581	0.100
641.200	18.324	0.100
641.300	15.478	0.100
641.400	21.250	0.100
641.500	19.735	0.100
641.600	29.312	0.100
641.700	26.112	0.100
641.800	27.406	0.100
641.900	30.431	0.100
642.000	9.035	0.100
642.100	15.516	0.100
642.200	20.933	0.100
642.300	30.477	0.100
642.400	25.278	0.100
642.500	23.599	0.100
642.600	14.086	0.100
642.700	27.527	0.100
642.800	21.689	0.100
642.900	23.414	0.100
643.000	25.934	0.100
643.100	8.188	0.100
643.200	20.163	0.100
643.300	23.575	0.100
643.400	25.656	0.100
643.500	24.844	0.100
643.600	11.555	0.100
643.700	22.228	0.100
643.800	29.849	0.100
643.900	13.185	0.100
644.000	20.633	0.100
644.100	22.238	0.100
644.200	21.186	0.100
644.300	23.422	0.100
644.400	18.980	0.100
644.500	21.414	0.100
644.600	12.332	0.100
644.700	13.083	0.100
644.800	17.259	0.100
644.900	32.419	0.100
645.000	16.579	0.100
645.100	26.244	0.100
645.200	18.741	0.100
645.300	13.064	0.100
645.400	25.263	0.100
645.500	21.376	0.100
645.600	21.872	0.100
645.700	24.137	0.100
645.800	32.386	0.100
645.900	22.280	0.100
646.000	19.596	0.100
646.100	17.810	0.100
646.200	29.569	0.100
646.300	20.028	0.100
646.400	17.153	0.100
646.500	21.501	0.100
646.600	20.509	0.100
646.700	20.757	0.100
646.800	17.958	0.100
646.900	18.583	0.100
647.000	24.906	0.100
647.100	20.217	0.100
647.200	25.417	0.100
647.300	26.548	0.100
647.400	20.295	0.100
647.500	13.213	0.100
647.600	13.313	0.100
647.700	15.990	0.100
647.800	27.246	0.100
647.900	28.836	0.100
648.000	17.146	0.100
648.100	11.690	0.100
648.200	19.987	0.100
648.300	20.957	0.100
648.400	36.532	0.100
648.500	18.380	0.100
648.600	20.846	0.100
648.700	30.043	0.100
648.800	15.135	0.100
648.900	22.282	0.100
649.000	15.812	0.100
649.100	26.955	0.100
649.200	23.713	0.100
649.300	22.962	0.100
649.400	29.285	0.100
649.500	25.042	0.100
649.600	14.650	0.100
649.700	27.918	0.100
649.800	28.939	0.100
649.900	22.802	0.100
650.000	18.999	0.100
650.100	22.339	0.100
650.200	13.532	0.100
650.300	19.351	0.100
650.400	22.959	0.100
650.500	19.878	0.100
650.600	10.378	0.100
650.700	24.035	0.100
650.800	15.230	0.100
650.900	15.694	0.100
651.000	24.112	0.100
651.100	31.120	0.100
651.200	35.864	0.100
651.300	27.901	0.100
651.400	26.908	0.100
651.500	34.000	0.100
651.600	12.302	0.100
651.700	16.136	0.100
651.800	25.988	0.100
651.900	16.063	0.100
652.000	24.204	0.100
652.100	20.546	0.100
652.200	28.430	0.100
652.300	23.464	0.100
652.400	24.673	0.100
652.500	29.798	0.100
652.600	31.870	0.100
652.700	10.423	0.100
652.800	30.048	0.100
652.900	29.271	0.100
653.000	11.557	0.100
653.100	28.997	0.100
653.200	13.829	0.100
653.300	33.272	0.100
653.400	25.239	0.100
653.500	26.025	0.100
653.600	28.830	0.100
653.700	20.911	0.100
653.800	17.514	0.100
653.900	15.803	0.100
654.000	16.715	0.100
654.100	25.549	0.100
654.200	22.385	0.100
654.300	36.542	0.100
654.400	23.326	0.100
654.500	16.734	0.100
654.600	22.345	0.100
654.700	22.461	0.100
654.800	22.316	0.100
654.900	25.920	0.100
655.000	15.745	0.100
655.100	16.143	0.100
655.200	11.310	0.100
655.300	19.624	0.100
655.400	28.849	0.100
655.500	22.752	0.100
655.600	20.716	0.100
655.700	17.529	0.100
655.800	14.423	0.100
655.900	15.726	0.100
656.000	27.612	0.100
656.100	21.980	0.100
656.200	19.966	0.100
656.300	25.508	0.100
656.400	10.932	0.100
656.500	23.992	0.100
656.600	32.824	0.100
656.700	11.124	0.100
656.800	18.274	0.100
656.900	20.219	0.100
657.000	25.571	0.100
657.100	21.823	0.100
657.200	30.464	0.100
657.300	35.112	0.100
657.400	27.013	0.100
657.500	21.778	0.100
657.600	15.667	0.100
657.700	26.676	0.100
657.800	20.038	0.100
657.900	22.014	0.100
658.000	27.634	0.100
658.100	17.202	0.100
658.200	20.476	0.100
658.300	27.293	0.100
658.400	15.567	0.100
658.500	27.735	0.100
658.600	16.162	0.100
658.700	18.330	0.100
658.800	21.259	0.100
658.900	17.955	0.100
659.000	26.971	0.100
659.100	33.197	0.100
659.200	22.249	0.100
659.300	12.027	0.100
659.400	17.870	0.100
659.500	20.027	0.100
659.600	16.240	0.100
659.700	20.095	0.100
659.800	27.050	0.100
659.900	37.764	0.100
660.000	15.269	0.100
660.100	18.750	0.100
660.200	24.446	0.100
660.300	26.142	0.100
660.400	37.771	0.100
660.500	14.534	0.100
660.600	19.462	0.100
660.700	21.564	0.100
660.800	26.503	0.100
660.900	22.134	0.100
661.000	27.287	0.100
661.100	16.347	0.100
661.200	25.480	0.100
661.300	19.517	0.100
661.400	25.455	0.100
661.500	29.033	0.100
661.600	16.669	0.100
661.700	22.115	0.100
661.800	15.847	0.100
661.900	21.980	0.100
662.000	33.389	0.100
662.100	22.999	0.100
662.200	21.087	0.100
662.300	21.814	0.100
662.400	16.364	0.100
662.500	26.934	0.100
662.600	30.759	0.100
662.700	18.814	0.100
662.800	20.408	0.100
662.900	24.990	0.100
663.000	26.435	0.100
663.100	23.337	0.100
663.200	18.950	0.100
663.300	24.171	0.100
663.400	14.142	0.100
663.500	21.679	0.100
663.600	32.009	0.100
663.700	15.210	0.100
663.800	23.507	0.100
663.900	29.494	0.100
664.000	23.268	0.100
664.100	20.205	0.100
664.200	26.793	0.100
664.300	23.155	0.100
664.400	30.432	0.100
664.500	17.291	0.100
664.600	22.408	0.100
664.700	21.416	0.100
664.800	25.676	0.100
664.900	24.909	0.100
665.000	29.490	0.100
665.100	25.891	0.100
665.200	29.081	0.100
665.300	23.405	0.100
665.400	20.402	0.100
665.500	28.078	0.100
665.600	19.832	0.100
665.700	21.435	0.100
665.800	24.640	0.100
665.900	17.897	0.100
666.000	17.969	0.100
666.100	18.362	0.100
666.200	26.705	0.100
666.300	23.149	0.100
666.400	26.792	0.100
666.500	17.568	0.100
666.600	22.810	0.100
666.700	21.503	0.100
666.800	33.081	0.100
666.900	23.593	0.100
667.000	18.717	0.100
667.100	21.781	0.100
667.200	18.301	0.100
667.300	20.417	0.100
667.400	20.537	0.100
667.500	28.399	0.100
667.600	20.351	0.100
667.700	25.825	0.100
667.800	21.557	0.100
667.900	25.111	0.100
668.000	20.500	0.100
668.100	23.881	0.100
668.200	20.909	0.100
668.300	16.288	0.100
668.400	12.052	0.100
668.500	17.672	0.100
668.600	15.789	0.100
668.700	33.936	0.100
668.800	30.709	0.100
668.900	25.194	0.100
669.000	28.673	0.100
669.100	34.355	0.100
669.200	21.525	0.100
669.300	18.535	0.100
669.400	23.754	0.100
669.500	26.736	0.100
669.600	15.790	0.100
669.700	26.632	0.100
669.800	27.787	0.100
669.900	28.266	0.100
670.000	34.553	0.100
670.100	28.240	0.100
670.200	33.323	0.100
670.300	27.792	0.100
670.400	12.710	0.100
670.500	20.734	0.100
670.600	21.627	0.100
670.700	25.856	0.100
670.800	12.892	0.100
670.900	24.665	0.100
671.000	20.557	0.100
671.100	22.596	0.100
671.200	26.330	0.100
671.300	15.201	0.100
671.400	16.781	0.100
671.500	27.368	0.100
671.600	20.486	0.100
671.700	16.894	0.100
671.800	34.069	0.100
671.900	22.835	0.100
672.000	21.705	0.100
672.100	21.091	0.100
672.200	23.522	0.100
672.300	29.726	0.100
672.400	17.829	0.100
672.500	28.519	0.100
672.600	34.366	0.100
672.700	23.425	0.100
672.800	11.370	0.100
672.900	18.334	0.100
673.000	20.293	0.100
673.100	21.418	0.100
673.200	22.609	0.100
673.300	28.350	0.100
673.400	23.761	0.100
673.500	21.702	0.100
673.600	26.036	0.100
673.700	16.844	0.100
673.800	13.162	0.100
673.900	23.364	0.100
674.000	31.694	0.100
674.100	20.493	0.100
674.200	24.146	0.100
674.300	16.790	0.100
674.400	28.786	0.100
674.500	13.852	0.100
674.600	36.151	0.100
674.700	18.578	0.100
674.800	25.683	0.100
674.900	14.346	0.100
675.000	20.815	0.100
675.100	30.362	0.100
675.200	28.588	0.100
675.300	19.067	0.100
675.400	24.449	0.100
675.500	19.600	0.100
675.600	28.472	0.100
675.700	25.697	0.100
675.800	26.012	0.100
675.900	18.330	0.100
676.000	23.002	0.100
676.100	20.769	0.100
676.200	31.899	0.100
676.300	27.304	0.100
676.400	21.010	0.100
676.500	17.387	0.100
676.600	31.254	0.100
676.700	24.556	0.100
676.800	22.881	0.100
676.900	22.548	0.100
677.000	28.429	0.100
677.100	20.109	0.100
677.200	30.293	0.100
677.300	21.771	0.100
677.400	15.523	0.100
677.500	18.792	0.100
677.600	22.907	0.100
677.700	31.032	0.100
677.800	19.829	0.100
677.900	15.151	0.100
678.000	27.405	0.100
678.100	20.932	0.100
678.200	22.096	0.100
678.300	25.089	0.100
678.400	27.825	0.100
678.500	21.114	0.100
678.600	15.325	0.100
678.700	19.790	0.100
678.800	34.054	0.100
678.900	31.061	0.100
679.000	15.399	0.100
679.100	20.726	0.100
679.200	19.779	0.100
679.300	26.605	0.100
679.400	22.986	0.100
679.500	14.854	0.100
679.600	22.946	0.100
679.700	5.508	0.100
679.800	19.655	0.100
679.900	27.830	0.100
680.000	27.369	0.100
680.100	20.357	0.100
680.200	23.635	0.100
680.300	25.913	0.100
680.400	20.914	0.100
680.500	32.023	0.100
680.600	14.055	0.100
680.700	30.779	0.100
680.800	23.525	0.100
680.900	16.717	0.100
681.000	21.441	0.100
681.100	31.928	0.100
681.200	16.590	0.100
681.300	25.077	0.100
681.400	25.805	0.100
681.500	22.738	0.100
681.600	24.296	0.100
681.700	14.720	0.100
681.800	22.327	0.100
681.900	18.369	0.100
682.000	29.530	0.100
682.100	32.261	0.100
682.200	8.941	0.100
682.300	20.197	0.100
682.400	25.208	0.100
682.500	19.690	0.100
682.600	21.984	0.100
682.700	22.886	0.100
682.800	28.560	0.100
682.900	20.082	0.100
683.000	24.478	0.100
683.100	28.736	0.100
683.200	23.260	0.100
683.300	17.857	0.100
683.400	14.028	0.100
683.500	20.028	0.100
683.600	22.023	0.100
683.700	21.936	0.100
683.800	24.231	0.100
683.900	29.798	0.100
684.000	20.750	0.100
684.100	18.607	0.100
684.200	13.430	0.100
684.300	17.317	0.100
684.400	12.815	0.100
684.500	31.608	0.100
684.600	22.139	0.100
684.700	23.325	0.100
684.800	18.327	0.100
684.900	26.807	0.100
685.000	24.814	0.100
685.100	17.215	0.100
685.200	24.015	0.100
685.300	22.180	0.100
685.400	32.201	0.100
685.500	32.987	0.100
685.600	22.157	0.100
685.700	24.596	0.100
685.800	22.871	0.100
685.900	28.067	0.100
686.000	25.953	0.100
686.100	18.114	0.100
686.200	19.114	0.100
686.300	24.375	0.100
686.400	28.706	0.100
686.500	17.396	0.100
686.600	21.348	0.100
686.700	23.090	0.100
686.800	28.076	0.100
686.900	25.330	0.100
687.000	28.288	0.100
687.100	29.180	0.100
687.200	26.712	0.100
687.300	27.532	0.100
687.400	22.834	0.100
687.500	9.278	0.100
687.600	18.920	0.100
687.700	32.097	0.100
687.800	27.339	0.100
687.900	12.963	0.100
688.000	17.011	0.100
688.100	25.640	0.100
688.200	29.642	0.100
688.300	19.425	0.100
688.400	27.048	0.100
688.500	23.779	0.100
688.600	31.309	0.100
688.700	25.783	0.100
688.800	27.082	0.100
688.900	26.112	0.100
689.000	28.747	0.100
689.100	17.953	0.100
689.200	29.999	0.100
689.300	20.375	0.100
689.400	22.652	0.100
689.500	16.756	0.100
689.600	21.792	0.100
689.700	18.425	0.100
689.800	33.423	0.100
689.900	18.097	0.100
690.000	25.100	0.100
690.100	27.970	0.100
690.200	30.388	0.100
690.300	25.978	0.100
690.400	16.298	0.100
690.500	23.369	0.100
690.600	24.119	0.100
690.700	20.770	0.100
690.800	15.745	0.100
690.900	30.938	0.100
691.000	20.722	0.100
691.100	26.706	0.100
691.200	14.967	0.100
691.300	13.860	0.100
691.400	18.877	0.100
691.500	20.061	0.100
691.600	25.374	0.100
691.700	19.085	0.100
691.800	16.150	0.100
691.900	23.482	0.100
692.000	15.090	0.100
692.100	27.708	0.100
692.200	20.047	0.100
692.300	16.555	0.100
692.400	12.844	0.100
692.500	29.821	0.100
692.600	30.430	0.100
692.700	25.994	0.100
692.800	14.663	0.100
692.900	18.461	0.100
693.000	24.519	0.100
693.100	21.419	0.100
693.200	32.634	0.100
693.300	24.768	0.100
693.400	19.174	0.100
693.500	17.392	0.100
693.600	17.204	0.100
693.700	20.921	0.100
693.800	15.241	0.100
693.900	28.125	0.100
694.000	19.401	0.100
694.100	21.927	0.100
694.200	20.764	0.100
694.300	17.124	0.100
694.400	20.173	0.100
694.500	23.565	0.100
694.600	30.291	0.100
694.700	22.602	0.100
694.800	20.910	0.100
694.900	28.425	0.100
695.000	16.115	0.100
695.100	27.682	0.100
695.200	23.888	0.100
695.300	20.005	0.100
695.400	15.640	0.100
695.500	9.958	0.100
695.600	17.102	0.100
695.700	26.985	0.100
695.800	21.778	0.100
695.900	33.498	0.100
696.000	25.127	0.100
696.100	27.484	0.100
696.200	20.395	0.100
696.300	19.588	0.100
696.400	18.620	0.100
696.500	20.907	0.100
696.600	23.643	0.100
696.700	20.123	0.100
696.800	17.623	0.100
696.900	29.862	0.100
697.000	17.249	0.100
697.100	25.694	0.100
697.200	21.001	0.100
697.300	24.404	0.100
697.400	26.812	0.100
697.500	26.339	0.100
697.600	20.559	0.100
697.700	18.638	0.100
697.800	21.226	0.100
697.900	25.118	0.100
698.000	19.500	0.100
698.100	13.692	0.100
698.200	21.107	0.100
698.300	24.243	0.100
698.400	26.100	0.100
698.500	27.442	0.100
698.600	23.031	0.100
698.700	19.111	0.100
698.800	21.737	0.100
698.900	17.945	0.100
699.000	16.275	0.100
699.100	24.453	0.100
699.200	19.362	0.100
699.300	18.982	0.100
699.400	21.597	0.100
699.500	24.806	0.100
699.600	24.074	0.100
699.700	18.497	0.100
699.800	19.048	0.100
699.900	14.892	0.100
700.000	15.833	0.100
700.100	20.269	0.100
700.200	16.283	0.100
700.300	19.772	0.100
700.400	24.869	0.100
700.500	17.104	0.100
700.600	15.633	0.100
700.700	21.026	0.100
700.800	30.545	0.100
700.900	18.078	0.100
701.000	18.424	0.100
701.100	16.334	0.100
701.200	18.216	0.100
701.300	19.111	0.100
701.400	24.775	0.100
701.500	24.359	0.100
701.600	22.927	0.100
701.700	25.471	0.100
701.800	23.649	0.100
701.900	17.790	0.100
702.000	4.288	0.100
702.100	17.108	0.100
702.200	15.145	0.100
702.300	19.744	0.100
702.400	19.862	0.100
702.500	16.792	0.100
702.600	35.580	0.100
702.700	16.122	0.100
702.800	22.879	0.100
702.900	16.396	0.100
703.000	16.731	0.100
703.100	23.880	0.100
703.200	14.340	0.100
703.300	19.721	0.100
703.400	18.671	0.100
703.500	13.417	0.100
703.600	11.812	0.100
703.700	16.075	0.100
703.800	17.716	0.100
703.900	24.513	0.100
704.000	17.541	0.100
704.100	29.735	0.100
704.200	22.636	0.100
704.300	21.208	0.100
704.400	12.896	0.100
704.500	5.759	0.100
704.600	20.442	0.100
704.700	14.710	0.100
704.800	22.248	0.100
704.900	23.837	0.100
705.000	24.245	0.100
705.100	13.857	0.100
705.200	20.393	0.100
705.300	17.805	0.100
705.400	20.363	0.100
705.500	12.940	0.100
705.600	17.380	0.100
705.700	11.989	0.100
705.800	24.122	0.100
705.900	21.094	0.100
706.000	28.715	0.100
706.100	16.430	0.100
706.200	14.302	0.100
706.300	21.825	0.100
706.400	19.562	0.100
706.500	18.982	0.100
706.600	17.636	0.100
706.700	12.107	0.100
706.800	28.405	0.100
706.900	24.451	0.100
707.000	15.836	0.100
707.100	22.883	0.100
707.200	15.598	0.100
707.300	18.629	0.100
707.400	16.102	0.100
707.500	23.538	0.100
707.600	21.749	0.100
707.700	15.606	0.100
707.800	17.500	0.100
707.900	24.316	0.100
708.000	24.143	0.100
708.100	10.999	0.100
708.200	14.605	0.100
708.300	14.806	0.100
708.400	20.587	0.100
708.500	13.957	0.100
708.600	21.766	0.100
708.700	27.412	0.100
708.800	17.612	0.100
708.900	9.904	0.100
709.000	19.960	0.100
709.100	15.682	0.100
709.200	24.126	0.100
709.300	21.596	0.100
709.400	14.638	0.100
709.500	23.234	0.100
709.600	14.086	0.100
709.700	14.848	0.100
709.800	15.305	0.100
709.900	12.445	0.100
710.000	22.708	0.100
710.100	26.547	0.100
710.200	13.262	0.100
710.300	19.617	0.100
710.400	20.334	0.100
710.500	17.656	0.100
710.600	21.969	0.100
710.700	17.558	0.100
710.800	14.458	0.100
710.900	8.636	0.100
711.000	17.093	0.100
711.100	20.078	0.100
711.200	9.689	0.100
711.300	12.790	0.100
711.400	9.332	0.100
711.500	17.617	0.100
711.600	14.435	0.100
711.700	11.788	0.100
711.800	15.858	0.100
711.900	12.406	0.100
712.000	14.825	0.100
712.100	9.368	0.100
712.200	11.843	0.100
712.300	3.820	0.100
712.400	22.233	0.100
712.500	18.170	0.100
712.600	10.151	0.100
712.700	18.543	0.100
712.800	22.500	0.100
712.900	16.623	0.100
713.000	8.121	0.100
713.100	17.300	0.100
713.200	13.730	0.100
713.300	13.822	0.100
713.400	18.683	0.100
713.500	16.455	0.100
713.600	14.724	0.100
713.700	22.485	0.100
713.800	13.841	0.100
713.900	18.137	0.100
714.000	13.919	0.100
714.100	30.277	0.100
714.200	13.181	0.100
714.300	17.131	0.100
714.400	20.894	0.100
714.500	10.158	0.100
714.600	17.279	0.100
714.700	19.353	0.100
714.800	10.967	0.100
714.900	10.776	0.100
715.000	28.414	0.100
715.100	10.416	0.100
715.200	11.569	0.100
715.300	17.835	0.100
715.400	23.869	0.100
715.500	17.203	0.100
715.600	16.976	0.100
715.700	21.757	0.100
715.800	12.782	0.100
715.900	15.333	0.100
716.000	20.580	0.100
716.100	15.075	0.100
716.200	7.809	0.100
716.300	24.267	0.100
716.400	19.547	0.100
716.500	14.885	0.100
716.600	17.416	0.100
716.700	19.135	0.100
716.800	11.164	0.100
716.900	14.397	0.100
717.000	21.442	0.100
717.100	17.382	0.100
717.200	10.609	0.100
717.300	10.361	0.100
717.400	13.273	0.100
717.500	21.212	0.100
717.600	18.921	0.100
717.700	0.865	0.100
717.800	6.415	0.100
717.900	22.387	0.100
718.000	13.615	0.100
718.100	10.941	0.100
718.200	9.935	0.100
718.300	14.970	0.100
718.400	9.264	0.100
718.500	22.819	0.100
718.600	13.502	0.100
718.700	17.353	0.100
718.800	18.161	0.100
718.900	19.961	0.100
719.000	-0.463	0.100
719.100	15.821	0.100
719.200	14.523	0.100
719.300	18.230	0.100
719.400	10.406	0.100
719.500	15.040	0.100
719.600	15.548	0.100
719.700	21.417	0.100
719.800	9.794	0.100
719.900	18.351	0.100
720.000	13.647	0.100
720.100	14.553	0.100
720.200	20.922	0.100
720.300	9.639	0.100
720.400	15.703	0.100
720.500	20.912	0.100
720.600	17.408	0.100
720.700	13.020	0.100
720.800	11.714	0.100
720.900	16.851	0.100
721.000	7.452	0.100
721.100	17.787	0.100
721.200	21.989	0.100
721.300	17.499	0.100
721.400	23.236	0.100
721.500	14.911	0.100
721.600	18.515	0.100
721.700	19.329	0.100
721.800	12.366	0.100
721.900	-0.115	0.100
722.000	15.979	0.100
722.100	18.288	0.100
722.200	9.626	0.100
722.300	27.238	0.100
722.400	10.710	0.100
722.500	13.600	0.100
722.600	7.771	0.100
722.700	3.988	0.100
722.800	13.458	0.100
722.900	7.473	0.100
723.000	10.993	0.100
723.100	22.159	0.100
723.200	9.911	0.100
723.300	12.902	0.100
723.400	5.822	0.100
723.500	13.039	0.100
723.600	18.370	0.100
723.700	14.125	0.100
723.800	14.728	0.100
723.900	17.871	0.100
724.000	14.079	0.100
724.100	8.451	0.100
724.200	13.020	0.100
724.300	21.338	0.100
724.400	16.558	0.100
724.500	11.355	0.100
724.600	3.957	0.100
724.700	11.334	0.100
724.800	12.033	0.100
724.900	20.177	0.100
725.000	8.488	0.100
725.100	19.981	0.100
725.200	11.909	0.100
725.300	16.546	0.100
725.400	11.780	0.100
725.500	18.677	0.100
725.600	14.672	0.100
725.700	18.277	0.100
725.800	9.570	0.100
725.900	5.937	0.100
726.000	26.609	0.100
726.100	19.028	0.100
726.200	18.920	0.100
726.300	12.859	0.100
726.400	5.455	0.100
726.500	5.798	0.100
726.600	5.904	0.100
726.700	21.034	0.100
726.800	14.801	0.100
726.900	7.454	0.100
727.000	8.210	0.100
727.100	6.043	0.100
727.200	13.603	0.100
727.300	18.923	0.100
727.400	4.089	0.100
727.500	20.742	0.100
727.600	21.641	0.100
727.700	4.623	0.100
727.800	16.172	0.100
727.900	20.904	0.100
728.000	14.729	0.100
728.100	15.653	0.100
728.200	6.119	0.100
728.300	13.818	0.100
728.400	6.751	0.100
728.500	15.384	0.100
728.600	19.124	0.100
728.700	3.397	0.100
728.800	17.219	0.100
728.900	23.707	0.100
729.000	13.072	0.100
729.100	13.123	0.100
729.200	14.661	0.100
729.300	12.053	0.100
729.400	8.070	0.100
729.500	7.902	0.100
729.600	11.404	0.100
729.700	11.563	0.100
729.800	14.697	0.100
729.900	17.402	0.100
730.000	15.022	0.100
730.100	20.459	0.100
730.200	11.943	0.100
730.300	10.761	0.100
730.400	3.568	0.100
730.500	7.510	0.100
730.600	13.430	0.100
730.700	12.189	0.100
730.800	18.006	0.100
730.900	5.950	0.100
731.000	15.209	0.100
731.100	5.649	0.100
731.200	9.337	0.100
731.300	12.689	0.100
731.400	15.927	0.100
731.500	8.270	0.100
731.600	3.975	0.100
731.700	20.698	0.100
731.800	14.186	0.100
731.900	13.499	0.100
732.000	18.223	0.100
732.100	27.687	0.100
732.200	4.819	0.100
732.300	17.214	0.100
732.400	8.327	0.100
732.500	15.967	0.100
732.600	10.506	0.100
732.700	9.104	0.100
732.800	10.961	0.100
732.900	12.449	0.100
733.000	19.423	0.100
733.100	18.374	0.100
733.200	11.137	0.100
733.300	4.086	0.100
733.400	13.616	0.100
733.500	18.240	0.100
733.600	2.113	0.100
733.700	15.349	0.100
733.800	13.181	0.100
733.900	5.140	0.100
734.000	10.298	0.100
734.100	9.754	0.100
734.200	13.533	0.100
734.300	21.854	0.100
734.400	27.546	0.100
734.500	13.919	0.100
734.600	11.428	0.100
734.700	11.707	0.100
734.800	20.506	0.100
734.900	17.842	0.100
735.000	6.739	0.100
735.100	15.989	0.100
735.200	17.587	0.100
735.300	8.891	0.100
735.400	6.427	0.100
735.500	15.425	0.100
735.600	4.365	0.100
735.700	18.809	0.100
735.800	3.801	0.100
735.900	17.617	0.100
736.000	16.219	0.100
736.100	14.523	0.100
736.200	-0.104	0.100
736.300	15.572	0.100
736.400	19.396	0.100
736.500	17.656	0.100
736.600	13.319	0.100
736.700	7.781	0.100
736.800	2.006	0.100
736.900	6.127	0.100
737.000	16.903	0.100
737.100	12.390	0.100
737.200	21.501	0.100
737.300	11.668	0.100
737.400	12.218	0.100
737.500	4.881	0.100
737.600	12.986	0.100
737.700	21.876	0.100
737.800	12.580	0.100
737.900	-1.996	0.100
738.000	7.897	0.100
738.100	20.354	0.100
738.200	8.722	0.100
738.300	9.207	0.100
738.400	5.185	0.100
738.500	17.153	0.100
738.600	18.942	0.100
738.700	14.766	0.100
738.800	20.298	0.100
738.900	9.405	0.100
739.000	4.530	0.100
739.100	14.777	0.100
739.200	12.585	0.100
739.300	7.554	0.100
739.400	14.628	0.100
739.500	23.114	0.100
739.600	8.544	0.100
739.700	11.667	0.100
739.800	16.352	0.100
739.900	11.389	0.100
740.000	10.432	0.100
740.100	8.695	0.100
740.200	8.924	0.100
740.300	2.530	0.100
740.400	10.260	0.100
740.500	13.427	0.100
740.600	16.907	0.100
740.700	10.473	0.100
740.800	3.874	0.100
740.900	13.635	0.100
741.000	6.468	0.100
741.100	12.236	0.100
741.200	3.029	0.100
741.300	6.067	0.100
741.400	7.236	0.100
741.500	13.337	0.100
741.600	16.316	0.100
741.700	5.611	0.100
741.800	17.511	0.100
741.900	16.880	0.100
742.000	17.667	0.100
742.100	8.392	0.100
742.200	20.607	0.100
742.300	10.432	0.100
742.400	10.699	0.100
742.500	11.928	0.100
742.600	18.549	0.100
742.700	12.298	0.100
742.800	6.023	0.100
742.900	18.121	0.100
743.000	11.648	0.100
743.100	17.507	0.100
743.200	9.057	0.100
743.300	12.222	0.100
743.400	7.399	0.100
743.500	14.255	0.100
743.600	10.394	0.100
743.700	6.844	0.100
743.800	4.475	0.100
743.900	14.407	0.100
744.000	7.022	0.100
744.100	11.537	0.100
744.200	18.343	0.100
744.300	6.872	0.100
744.400	11.954	0.100
744.500	8.113	0.100
744.600	9.201	0.100
744.700	10.366	0.100
744.800	13.757	0.100
744.900	17.048	0.100
745.000	12.544	0.100
745.100	11.834	0.100
745.200	4.444	0.100
745.300	12.819	0.100
745.400	9.772	0.100
745.500	4.767	0.100
745.600	6.678	0.100
745.700	5.478	0.100
745.800	2.694	0.100
745.900	11.701	0.100
746.000	18.452	0.100
746.100	10.278	0.100
746.200	2.403	0.100
746.300	7.015	0.100
746.400	4.379	0.100
746.500	5.295	0.100
746.600	7.803	0.100
746.700	9.531	0.100
746.800	8.993	0.100
746.900	21.885	0.100
747.000	13.064	0.100
747.100	3.469	0.100
747.200	10.408	0.100
747.300	22.466	0.100
747.400	10.873	0.100
747.500	11.519	0.100
747.600	6.763	0.100
747.700	12.760	0.100
747.800	8.190	0.100
747.900	9.027	0.100
748.000	14.576	0.100
748.100	1.506	0.100
748.200	9.845	0.100
748.300	-1.504	0.100
748.400	11.588	0.100
748.500	13.423	0.100
748.600	11.235	0.100
748.700	8.447	0.100
748.800	3.342	0.100
748.900	6.561	0.100
749.000	4.057	0.100
749.100	7.264	0.100
749.200	15.259	0.100
749.300	3.286	0.100
749.400	4.859	0.100
749.500	9.442	0.100
749.600	13.364	0.100
749.700	9.762	0.100
749.800	10.756	0.100
749.900	19.388	0.100
750.000	13.703	0.100
750.100	4.564	0.100
750.200	5.194	0.100
750.300	8.879	0.100
750.400	4.642	0.100
750.500	9.084	0.100
750.600	10.823	0.100
750.700	12.480	0.100
750.800	10.389	0.100
750.900	8.444	0.100
751.000	30.354	0.100
751.100	6.360	0.100
751.200	5.955	0.100
751.300	3.544	0.100
751.400	1.987	0.100
751.500	4.933	0.100
751.600	11.843	0.100
751.700	4.760	0.100
751.800	16.094	0.100
751.900	16.961	0.100
752.000	11.579	0.100
752.100	-5.278	0.100
752.200	8.138	0.100
752.300	6.190	0.100
752.400	1.412	0.100
752.500	10.224	0.100
752.600	7.444	0.100
752.700	16.094	0.100
752.800	3.183	0.100
752.900	9.599	0.100
753.000	3.802	0.100
753.100	10.246	0.100
753.200	14.147	0.100
753.300	3.412	0.100
753.400	15.742	0.100
753.500	7.322	0.100
753.600	8.324	0.100
753.700	15.130	0.100
753.800	-2.496	0.100
753.900	14.794	0.100
754.000	2.345	0.100
754.100	7.183	0.100
754.200	7.323	0.100
754.300	15.028	0.100
754.400	19.576	0.100
754.500	-2.518	0.100
754.600	14.579	0.100
754.700	21.689	0.100
754.800	13.582	0.100
754.900	12.850	0.100
755.000	12.050	0.100
755.100	4.336	0.100
755.200	8.336	0.100
755.300	11.202	0.100
755.400	5.665	0.100
755.500	8.887	0.100
755.600	11.882	0.100
755.700	14.063	0.100
755.800	7.183	0.100
755.900	21.329	0.100
756.000	-3.128	0.100
756.100	15.107	0.100
756.200	3.585	0.100
756.300	7.285	0.100
756.400	2.343	0.100
756.500	-4.378	0.100
756.600	14.065	0.100
756.700	10.111	0.100
756.800	17.460	0.100
756.900	13.000	0.100
757.000	7.475	0.100
757.100	15.958	0.100
757.200	5.409	0.100
757.300	9.218	0.100
757.400	9.896	0.100
757.500	10.508	0.100
757.600	17.287	0.100
757.700	1.130	0.100
757.800	2.851	0.100
757.900	8.842	0.100
758.000	11.046	0.100
758.100	5.070	0.100
758.200	12.388	0.100
758.300	6.647	0.100
758.400	8.441	0.100
758.500	5.703	0.100
758.600	7.077	0.100
758.700	13.856	0.100
758.800	-2.277	0.100
758.900	6.712	0.100
759.000	12.527	0.100
759.100	10.597	0.100
759.200	3.025	0.100
759.300	7.363	0.100
759.400	4.332	0.100
759.500	1.476	0.100
759.600	10.124	0.100
759.700	9.833	0.100
759.800	2.564	0.100
759.900	8.638	0.100
760.000	9.331	0.100
760.100	26.726	0.100
760.200	8.066	0.100
760.300	13.146	0.100
760.400	4.054	0.100
760.500	5.619	0.100
760.600	18.642	0.100
760.700	1.674	0.100
760.800	13.658	0.100
760.900	6.163	0.100
761.000	7.444	0.100
761.100	2.066	0.100
761.200	12.350	0.100
761.300	6.998	0.100
761.400	12.686	0.100
761.500	-4.693	0.100
761.600	11.705	0.100
761.700	16.750	0.100
761.800	8.854	0.100
761.900	12.840	0.100
762.000	1.590	0.100
762.100	20.005	0.100
762.200	13.026	0.100
762.300	0.018	0.100
762.400	4.917	0.100
762.500	10.610	0.100
762.600	5.673	0.100
762.700	10.015	0.100
762.800	3.621	0.100
762.900	13.529	0.100
763.000	12.283	0.100
763.100	-0.085	0.100
763.200	1.034	0.100
763.300	8.764	0.100
763.400	9.575	0.100
763.500	5.994	0.100
763.600	12.494	0.100
763.700	12.303	0.100
763.800	0.878	0.100
763.900	2.916	0.100
764.000	0.840	0.100
764.100	8.701	0.100
764.200	4.450	0.100
764.300	13.015	0.100
764.400	1.287	0.100
764.500	9.849	0.100
764.600	14.678	0.100
764.700	2.261	0.100
764.800	3.001	0.100
764.900	13.002	0.100
765.000	7.948	0.100
765.100	4.677	0.100
765.200	7.954	0.100
765.300	23.317	0.100
765.400	11.562	0.100
765.500	7.425	0.100
765.600	7.653	0.100
765.700	8.221	0.100
765.800	3.825	0.100
765.900	15.830	0.100
766.000	0.259	0.100
766.100	22.589	0.100
766.200	-1.038	0.100
766.300	1.298	0.100
766.400	9.521	0.100
766.500	17.728	0.100
766.600	2.278	0.100
766.700	19.154	0.100
766.800	11.354	0.100
766.900	4.864	0.100
767.000	7.714	0.100
767.100	-0.665	0.100
767.200	6.676	0.100
767.300	7.852	0.100
767.400	2.253	0.100
767.500	3.404	0.100
767.600	-0.678	0.100
767.700	5.132	0.100
767.800	10.113	0.100
767.900	1.049	0.100
768.000	12.505	0.100
768.100	8.099	0.100
768.200	4.005	0.100
768.300	10.536	0.100
768.400	5.518	0.100
768.500	4.704	0.100
768.600	-0.316	0.100
768.700	-1.486	0.100
768.800	6.448	0.100
768.900	-1.839	0.100
769.000	14.473	0.100
769.100	8.603	0.100
769.200	3.241	0.100
769.300	8.139	0.100
769.400	0.680	0.100
769.500	6.753	0.100
769.600	14.219	0.100
769.700	17.468	0.100
769.800	1.249	0.100
769.900	11.447	0.100
770.000	5.329	0.100
770.100	17.210	0.100
770.200	11.480	0.100
770.300	4.345	0.100
770.400	13.483	0.100
770.500	1.739	0.100
770.600	18.626	0.100
770.700	4.589	0.100
770.800	7.812	0.100
770.900	5.454	0.100
771.000	9.227	0.100
771.100	9.486	0.100
771.200	1.363	0.100
771.300	7.989	0.100
771.400	8.141	0.100
771.500	1.655	0.100
771.600	4.466	0.100
771.700	-3.836	0.100
771.800	9.986	0.100
771.900	14.677	0.100
772.000	5.866	0.100
772.100	1.582	0.100
772.200	5.073	0.100
772.300	2.064	0.100
772.400	5.238	0.100
772.500	12.059	0.100
772.600	11.105	0.100
772.700	12.507	0.100
772.800	-1.290	0.100
772.900	8.057	0.100
773.000	-4.211	0.100
773.100	5.439	0.100
773.200	10.408	0.100
773.300	3.428	0.100
773.400	-2.794	0.100
773.500	3.569	0.100
773.600	15.063	0.100
773.700	9.282	0.100
773.800	4.393	0.100
773.900	6.907	0.100
774.000	-1.890	0.100
774.100	0.992	0.100
774.200	13.785	0.100
774.300	13.058	0.100
774.400	5.603	0.100
774.500	9.462	0.100
774.600	3.446	0.100
774.700	4.898	0.100
774.800	6.149	0.100
774.900	8.017	0.100
775.000	4.652	0.100
775.100	9.159	0.100
775.200	-0.122	0.100
775.300	3.588	0.100
775.400	7.178	0.100
775.500	-3.626	0.100
775.600	-2.633	0.100
775.700	7.775	0.100
775.800	10.163	0.100
775.900	9.163	0.100
776.000	1.059	0.100
776.100	-0.112	0.100
776.200	0.295	0.100
776.300	10.994	0.100
776.400	9.043	0.100
776.500	2.649	0.100
776.600	8.976	0.100
776.700	1.044	0.100
776.800	13.518	0.100
776.900	-2.497	0.100
777.000	7.781	0.100
777.100	2.572	0.100
777.200	2.982	0.100
777.300	9.433	0.100
777.400	7.260	0.100
777.500	7.213	0.100
777.600	11.312	0.100
777.700	-0.268	0.100
777.800	15.374	0.100
777.900	6.007	0.100
778.000	4.777	0.100
778.100	-0.536	0.100
778.200	7.265	0.100
778.300	6.383	0.100
778.400	12.458	0.100
778.500	1.649	0.100
778.600	-4.899	0.100
778.700	12.711	0.100
778.800	9.692	0.100
778.900	9.658	0.100
779.000	1.938	0.100
779.100	8.443	0.100
779.200	7.264	0.100
779.300	5.364	0.100
779.400	2.804	0.100
779.500	6.727	0.100
779.600	8.915	0.100
779.700	-1.715	0.100
779.800	3.249	0.100
779.900	7.453	0.100
780.000	7.482	0.100
780.100	4.557	0.100
780.200	-1.999	0.100
780.300	7.739	0.100
780.400	5.722	0.100
780.500	-0.362	0.100
780.600	5.944	0.100
780.700	10.045	0.100
780.800	6.561	0.100
780.900	14.920	0.100
781.000	-0.602	0.100
781.100	15.555	0.100
781.200	6.790	0.100
781.300	8.814	0.100
781.400	13.241	0.100
781.500	-5.308	0.100
781.600	6.822	0.100
781.700	-0.941	0.100
781.800	4.057	0.100
781.900	11.434	0.100
782.000	5.142	0.100
782.100	8.136	0.100
782.200	-0.748	0.100
782.300	4.937	0.100
782.400	13.926	0.100
782.500	3.608	0.100
782.600	13.455	0.100
782.700	-4.023	0.100
782.800	8.154	0.100
782.900	19.165	0.100
783.000	3.183	0.100
783.100	2.482	0.100
783.200	4.304	0.100
783.300	13.045	0.100
783.400	4.949	0.100
783.500	5.060	0.100
783.600	4.240	0.100
783.700	2.059	0.100
783.800	6.231	0.100
783.900	8.441	0.100
784.000	3.696	0.100
784.100	11.898	0.100
784.200	1.196	0.100
784.300	-0.501	0.100
784.400	2.355	0.100
784.500	6.328	0.100
784.600	2.047	0.100
784.700	7.336	0.100
784.800	6.410	0.100
784.900	14.145	0.100
785.000	1.810	0.100
785.100	10.937	0.100
785.200	18.235	0.100
785.300	5.177	0.100
785.400	-1.528	0.100
785.500	1.173	0.100
785.600	10.581	0.100
785.700	7.453	0.100
785.800	9.467	0.100
785.900	7.972	0.100
786.000	6.158	0.100
786.100	5.145	0.100
786.200	11.134	0.100
786.300	9.784	0.100
786.400	8.954	0.100
786.500	3.000	0.100
786.600	-0.169	0.100
786.700	10.661	0.100
786.800	11.459	0.100
786.900	11.858	0.100
787.000	9.274	0.100
787.100	4.436	0.100
787.200	12.724	0.100
787.300	2.000	0.100
787.400	7.371	0.100
787.500	5.325	0.100
787.600	5.816	0.100
787.700	12.236	0.100
787.800	5.574	0.100
787.900	2.379	0.100
788.000	10.963	0.100
788.100	5.976	0.100
788.200	9.451	0.100
788.300	13.127	0.100
788.400	3.215	0.100
788.500	4.275	0.100
788.600	3.422	0.100
788.700	9.399	0.100
788.800	1.131	0.100
788.900	12.941	0.100
789.000	2.688	0.100
789.100	13.169	0.100
789.200	9.341	0.100
789.300	3.769	0.100
789.400	10.241	0.100
789.500	13.295	0.100
789.600	11.506	0.100
789.700	19.155	0.100
789.800	-1.701	0.100
789.900	7.497	0.100
790.000	0.372	0.100
790.100	10.423	0.100
790.200	7.502	0.100
790.300	-0.783	0.100
790.400	14.609	0.100
790.500	9.967	0.100
790.600	15.033	0.100
790.700	7.068	0.100
790.800	6.088	0.100
790.900	7.248	0.100
791.000	10.756	0.100
791.100	6.344	0.100
791.200	12.834	0.100
791.300	3.317	0.100
791.400	9.429	0.100
791.500	6.697	0.100
791.600	8.603	0.100
791.700	-3.384	0.100
791.800	1.834	0.100
791.900	12.352	0.100
792.000	2.993	0.100
792.100	11.102	0.100
792.200	17.152	0.100
792.300	13.644	0.100
792.400	7.461	0.100
792.500	-1.924	0.100
792.600	9.393	0.100
792.700	8.603	0.100
792.800	5.828	0.100
792.900	10.774	0.100
793.000	19.154	0.100
793.100	20.502	0.100
793.200	14.711	0.100
793.300	3.667	0.100
793.400	3.078	0.100
793.500	4.174	0.100
793.600	5.233	0.100
793.700	1.369	0.100
793.800	19.378	0.100
793.900	12.045	0.100
794.000	7.147	0.100
794.100	8.929	0.100
794.200	-8.316	0.100
794.300	30.476	0.100
794.400	9.417	0.100
794.500	16.331	0.100
794.600	8.195	0.100
794.700	1.916	0.100
794.800	14.245	0.100
794.900	16.424	0.100
795.000	11.965	0.100
795.100	10.958	0.100
795.200	9.907	0.100
795.300	14.342	0.100
795.400	5.153	0.100
795.500	3.457	0.100
795.600	5.548	0.100
795.700	13.817	0.100
795.800	5.422	0.100
795.900	11.667	0.100
796.000	12.544	0.100
796.100	-2.783	0.100
796.200	12.764	0.100
796.300	13.042	0.100
796.400	13.504	0.100
796.500	12.545	0.100
796.600	18.034	0.100
796.700	6.991	0.100
796.800	18.887	0.100
796.900	8.590	0.100
797.000	-0.783	0.100
797.100	1.223	0.100
797.200	6.859	0.100
797.300	5.513	0.100
797.400	16.411	0.100
797.500	7.798	0.100
797.600	13.147	0.100
797.700	10.804	0.100
797.800	13.658	0.100
797.900	15.962	0.100
798.000	11.748	0.100
798.100	8.813	0.100
798.200	14.726	0.100
798.300	-0.733	0.100
798.400	12.447	0.100
798.500	4.899	0.100
798.600	-0.398	0.100
798.700	10.591	0.100
798.800	19.150	0.100
798.900	22.896	0.100
799.000	7.163	0.100
799.100	4.960	0.100
799.200	-1.163	0.100
799.300	20.767	0.100
799.400	20.477	0.100
799.500	10.525	0.100
799.600	5.288	0.100
799.700	0.312	0.100
799.800	6.115	0.100
799.900	12.050	0.100
800.000	13.238	0.100
